Frequency (Hz)	Level (dB)
0.976562	-62.870422
1.953125	-64.335220
2.929688	-64.138885
3.906250	-63.661922
4.882812	-64.937775
5.859375	-63.240601
6.835938	-63.328220
7.812500	-60.895123
8.789062	-60.678951
9.765625	-60.011208
10.742188	-59.054363
11.718750	-59.430431
12.695312	-60.217945
13.671875	-60.587635
14.648438	-59.865200
15.625000	-59.816906
16.601562	-57.848904
17.578125	-58.069199
18.554688	-58.338596
19.531250	-55.798656
20.507812	-54.041290
21.484375	-51.558811
22.460938	-51.832760
23.437500	-52.486191
24.414062	-53.505859
25.390625	-54.971699
26.367188	-54.627888
27.343750	-54.499920
28.320312	-55.343258
29.296875	-57.330833
30.273438	-55.952267
31.250000	-55.194973
32.226562	-56.415146
33.203125	-56.488831
34.179688	-56.290051
35.156250	-56.664295
36.132812	-56.428558
37.109375	-55.449692
38.085938	-55.454449
39.062500	-55.846058
40.039062	-56.067818
41.015625	-57.286194
41.992188	-55.535301
42.968750	-54.111374
43.945312	-53.578709
44.921875	-53.032990
45.898438	-52.953232
46.875000	-52.597778
47.851562	-53.049015
48.828125	-53.191433
49.804688	-52.837517
50.781250	-53.342873
51.757812	-53.293411
52.734375	-54.473713
53.710938	-54.825195
54.687500	-54.834797
55.664062	-56.110897
56.640625	-56.760624
57.617188	-57.437431
58.593750	-56.169178
59.570312	-56.235275
60.546875	-54.435020
61.523438	-55.359650
62.500000	-55.376957
63.476562	-55.402065
64.453125	-55.725368
65.429688	-55.972397
66.406250	-55.283546
67.382812	-55.452744
68.359375	-53.680923
69.335938	-53.480850
70.312500	-53.343510
71.289062	-54.136097
72.265625	-53.920563
73.242188	-54.388416
74.218750	-54.598343
75.195312	-54.592499
76.171875	-54.864655
77.148438	-56.404194
78.125000	-55.474915
79.101562	-55.699177
80.078125	-56.126236
81.054688	-55.543182
82.031250	-57.190395
83.007812	-57.256229
83.984375	-56.251522
84.960938	-55.911671
85.937500	-55.788212
86.914062	-55.689232
87.890625	-56.363251
88.867188	-56.572380
89.843750	-55.262451
90.820312	-54.098846
91.796875	-54.431053
92.773438	-54.334873
93.750000	-52.387032
94.726562	-52.561840
95.703125	-53.200638
96.679688	-54.101963
97.656250	-54.480270
98.632812	-54.753124
99.609375	-54.994579
100.585938	-55.217049
101.562500	-56.935341
102.539062	-55.672588
103.515625	-55.146584
104.492188	-56.187042
105.468750	-57.299313
106.445312	-55.839905
107.421875	-54.981735
108.398438	-55.561253
109.375000	-54.066460
110.351562	-55.441917
111.328125	-55.283638
112.304688	-53.382057
113.281250	-55.059021
114.257812	-53.465179
115.234375	-52.362576
116.210938	-52.347828
117.187500	-53.545738
118.164062	-52.762093
119.140625	-52.844757
120.117188	-52.189198
121.093750	-52.610226
122.070312	-54.383087
123.046875	-55.314754
124.023438	-56.216667
125.000000	-54.715855
125.976562	-54.400036
126.953125	-54.026352
127.929688	-56.145557
128.906250	-55.628372
129.882812	-55.135567
130.859375	-55.324253
131.835938	-54.275166
132.812500	-56.144035
133.789062	-55.670609
134.765625	-55.874985
135.742188	-55.949757
136.718750	-54.734276
137.695312	-52.885265
138.671875	-53.401314
139.648438	-53.340866
140.625000	-53.689056
141.601562	-53.836609
142.578125	-54.418571
143.554688	-54.908630
144.531250	-54.988556
145.507812	-54.871853
146.484375	-54.913166
147.460938	-56.214710
148.437500	-55.573063
149.414062	-56.250038
150.390625	-56.659294
151.367188	-56.338547
152.343750	-55.147247
153.320312	-55.957436
154.296875	-57.423397
155.273438	-57.974789
156.250000	-57.066643
157.226562	-56.512905
158.203125	-54.801773
159.179688	-55.002728
160.156250	-55.330109
161.132812	-54.916325
162.109375	-53.586174
163.085938	-54.155766
164.062500	-55.562721
165.039062	-53.634010
166.015625	-53.564968
166.992188	-53.531712
167.968750	-53.790230
168.945312	-55.300850
169.921875	-55.019253
170.898438	-53.568073
171.875000	-55.337749
172.851562	-55.989380
173.828125	-54.492340
174.804688	-56.215805
175.781250	-56.176929
176.757812	-56.344898
177.734375	-58.082905
178.710938	-56.946102
179.687500	-54.495956
180.664062	-56.291103
181.640625	-55.544949
182.617188	-55.222904
183.593750	-55.343502
184.570312	-54.468212
185.546875	-55.298706
186.523438	-55.751411
187.500000	-55.449112
188.476562	-55.244431
189.453125	-56.316517
190.429688	-52.645969
191.406250	-53.973156
192.382812	-54.780342
193.359375	-54.275124
194.335938	-56.002174
195.312500	-56.596752
196.289062	-57.512112
197.265625	-56.747028
198.242188	-56.765244
199.218750	-57.270992
200.195312	-56.641785
201.171875	-54.924110
202.148438	-55.097923
203.125000	-54.306763
204.101562	-53.904079
205.078125	-53.862000
206.054688	-53.018002
207.031250	-52.836494
208.007812	-53.509773
208.984375	-52.149155
209.960938	-53.082794
210.937500	-54.266468
211.914062	-54.998344
212.890625	-54.583858
213.867188	-55.174408
214.843750	-55.147259
215.820312	-53.680019
216.796875	-54.888626
217.773438	-55.408554
218.750000	-55.194000
219.726562	-55.385742
220.703125	-55.673084
221.679688	-56.032471
222.656250	-55.950054
223.632812	-56.541565
224.609375	-56.188129
225.585938	-54.856621
226.562500	-53.412750
227.539062	-53.514927
228.515625	-53.597862
229.492188	-52.446224
230.468750	-52.255928
231.445312	-54.076763
232.421875	-55.935410
233.398438	-56.926186
234.375000	-54.724640
235.351562	-54.415127
236.328125	-54.211060
237.304688	-53.903748
238.281250	-54.859413
239.257812	-56.400200
240.234375	-56.326126
241.210938	-56.263554
242.187500	-55.883297
243.164062	-57.576645
244.140625	-56.601128
245.117188	-55.497047
246.093750	-53.740250
247.070312	-54.315796
248.046875	-54.158081
249.023438	-53.268257
250.000000	-54.326496
250.976562	-53.447044
251.953125	-54.412392
252.929688	-54.992691
253.906250	-54.868862
254.882812	-54.675083
255.859375	-55.267632
256.835938	-55.529690
257.812500	-56.428692
258.789062	-55.843632
259.765625	-56.181732
260.742188	-55.970634
261.718750	-55.550552
262.695312	-55.392784
263.671875	-55.311661
264.648438	-54.984886
265.625000	-54.982929
266.601562	-55.756771
267.578125	-53.782467
268.554688	-54.323872
269.531250	-54.680511
270.507812	-56.298321
271.484375	-55.356544
272.460938	-53.470547
273.437500	-51.670742
274.414062	-52.525448
275.390625	-54.205177
276.367188	-55.594704
277.343750	-56.497822
278.320312	-56.080090
279.296875	-55.759880
280.273438	-56.203743
281.250000	-54.927620
282.226562	-54.574551
283.203125	-55.375843
284.179688	-57.142128
285.156250	-57.925446
286.132812	-55.454727
287.109375	-54.437576
288.085938	-54.739365
289.062500	-53.593021
290.039062	-53.438690
291.015625	-54.353439
291.992188	-54.965839
292.968750	-55.569241
293.945312	-56.402512
294.921875	-57.094444
295.898438	-55.706760
296.875000	-54.943523
297.851562	-55.463322
298.828125	-55.375431
299.804688	-55.703594
300.781250	-54.213497
301.757812	-56.603573
302.734375	-56.708126
303.710938	-56.044781
304.687500	-56.195263
305.664062	-56.756607
306.640625	-55.904686
307.617188	-55.782856
308.593750	-55.878178
309.570312	-57.040016
310.546875	-57.391907
311.523438	-56.328114
312.500000	-56.525558
313.476562	-55.118042
314.453125	-55.566360
315.429688	-56.609501
316.406250	-56.179008
317.382812	-57.042580
318.359375	-58.472122
319.335938	-56.529270
320.312500	-55.231575
321.289062	-54.762989
322.265625	-54.937271
323.242188	-56.945206
324.218750	-55.186806
325.195312	-56.445538
326.171875	-55.401272
327.148438	-54.926960
328.125000	-56.335323
329.101562	-55.399712
330.078125	-55.542847
331.054688	-55.163738
332.031250	-54.930454
333.007812	-55.424137
333.984375	-56.266666
334.960938	-55.888920
335.937500	-55.793797
336.914062	-55.888046
337.890625	-55.787811
338.867188	-56.065884
339.843750	-56.141960
340.820312	-55.866642
341.796875	-56.150272
342.773438	-55.309433
343.750000	-55.844551
344.726562	-55.903652
345.703125	-56.305321
346.679688	-56.790768
347.656250	-56.174492
348.632812	-56.851803
349.609375	-57.739758
350.585938	-55.057407
351.562500	-54.023762
352.539062	-54.323486
353.515625	-54.459610
354.492188	-56.894348
355.468750	-56.824429
356.445312	-57.713566
357.421875	-55.950844
358.398438	-56.166924
359.375000	-55.730030
360.351562	-55.792160
361.328125	-55.226334
362.304688	-55.149956
363.281250	-55.122753
364.257812	-54.477139
365.234375	-56.235180
366.210938	-56.193054
367.187500	-55.541630
368.164062	-56.326668
369.140625	-55.235638
370.117188	-55.506111
371.093750	-56.915817
372.070312	-57.576954
373.046875	-56.260899
374.023438	-55.378181
375.000000	-55.709911
375.976562	-54.333794
376.953125	-55.727871
377.929688	-55.765465
378.906250	-55.356838
379.882812	-55.729687
380.859375	-54.785053
381.835938	-54.402992
382.812500	-54.153816
383.789062	-55.524124
384.765625	-55.090897
385.742188	-54.754925
386.718750	-55.561470
387.695312	-55.204105
388.671875	-55.963688
389.648438	-55.949394
390.625000	-55.135620
391.601562	-55.484955
392.578125	-54.913223
393.554688	-55.256248
394.531250	-55.310020
395.507812	-55.045994
396.484375	-54.513504
397.460938	-54.726566
398.437500	-55.264572
399.414062	-55.558132
400.390625	-55.358032
401.367188	-54.099499
402.343750	-54.547276
403.320312	-53.322746
404.296875	-55.786869
405.273438	-54.888897
406.250000	-55.698486
407.226562	-54.841679
408.203125	-55.230293
409.179688	-54.323616
410.156250	-54.245777
411.132812	-55.217445
412.109375	-56.336517
413.085938	-55.104706
414.062500	-54.279743
415.039062	-53.198563
416.015625	-55.296631
416.992188	-54.746925
417.968750	-54.263737
418.945312	-54.396259
419.921875	-55.036442
420.898438	-54.352211
421.875000	-54.163471
422.851562	-53.901997
423.828125	-54.210587
424.804688	-55.345985
425.781250	-56.308769
426.757812	-54.374344
427.734375	-56.077312
428.710938	-54.545925
429.687500	-54.214077
430.664062	-56.318623
431.640625	-56.071384
432.617188	-54.904530
433.593750	-54.159569
434.570312	-53.777817
435.546875	-53.947544
436.523438	-54.759636
437.500000	-55.280064
438.476562	-55.206715
439.453125	-54.983086
440.429688	-54.511757
441.406250	-53.996666
442.382812	-54.606529
443.359375	-54.880001
444.335938	-54.928928
445.312500	-54.793411
446.289062	-55.633099
447.265625	-54.937576
448.242188	-53.811081
449.218750	-54.997444
450.195312	-55.107426
451.171875	-55.478951
452.148438	-55.090401
453.125000	-54.597343
454.101562	-54.279373
455.078125	-53.614017
456.054688	-56.132053
457.031250	-53.778286
458.007812	-54.456089
458.984375	-55.272602
459.960938	-54.853798
460.937500	-53.877144
461.914062	-53.822433
462.890625	-53.713284
463.867188	-54.529453
464.843750	-54.242409
465.820312	-54.634193
466.796875	-53.155159
467.773438	-54.205845
468.750000	-52.628025
469.726562	-53.474022
470.703125	-54.034981
471.679688	-54.036968
472.656250	-55.837231
473.632812	-54.994144
474.609375	-53.409153
475.585938	-52.338985
476.562500	-54.354321
477.539062	-54.212257
478.515625	-55.511074
479.492188	-54.250977
480.468750	-53.838791
481.445312	-53.412102
482.421875	-54.613609
483.398438	-55.617786
484.375000	-55.302769
485.351562	-54.647285
486.328125	-54.907784
487.304688	-55.174702
488.281250	-55.317791
489.257812	-54.644817
490.234375	-54.615444
491.210938	-53.619457
492.187500	-53.789570
493.164062	-52.667038
494.140625	-53.336193
495.117188	-54.879547
496.093750	-54.194809
497.070312	-53.851070
498.046875	-54.929134
499.023438	-52.994324
500.000000	-54.698772
500.976562	-55.174084
501.953125	-53.461605
502.929688	-55.856949
503.906250	-55.287594
504.882812	-54.554047
505.859375	-55.004215
506.835938	-53.952023
507.812500	-53.816612
508.789062	-55.259815
509.765625	-54.623863
510.742188	-53.356518
511.718750	-53.641720
512.695312	-53.423225
513.671875	-54.452431
514.648438	-54.627460
515.625000	-53.920834
516.601562	-53.675102
517.578125	-52.878239
518.554688	-53.098282
519.531250	-54.364883
520.507812	-56.654568
521.484375	-53.685165
522.460938	-54.503624
523.437500	-54.198536
524.414062	-53.052074
525.390625	-53.749119
526.367188	-53.558250
527.343750	-54.028957
528.320312	-52.750031
529.296875	-52.526039
530.273438	-52.758270
531.250000	-53.804405
532.226562	-53.899757
533.203125	-53.145081
534.179688	-53.525665
535.156250	-54.164268
536.132812	-54.889572
537.109375	-54.888172
538.085938	-55.268715
539.062500	-54.880455
540.039062	-54.243439
541.015625	-53.810200
541.992188	-54.565880
542.968750	-54.466522
543.945312	-53.643459
544.921875	-53.371792
545.898438	-53.883377
546.875000	-52.870720
547.851562	-53.120422
548.828125	-53.973919
549.804688	-53.228497
550.781250	-54.733219
551.757812	-55.187714
552.734375	-52.462639
553.710938	-53.006920
554.687500	-54.638638
555.664062	-53.249157
556.640625	-53.341095
557.617188	-54.134899
558.593750	-54.392082
559.570312	-53.202744
560.546875	-55.132614
561.523438	-54.712364
562.500000	-53.378620
563.476562	-55.443104
564.453125	-53.682713
565.429688	-53.675243
566.406250	-54.983913
567.382812	-54.205841
568.359375	-53.284744
569.335938	-53.943802
570.312500	-53.055790
571.289062	-52.887104
572.265625	-53.355381
573.242188	-53.019260
574.218750	-53.032593
575.195312	-53.170471
576.171875	-55.348286
577.148438	-54.307961
578.125000	-54.821491
579.101562	-53.562553
580.078125	-55.965553
581.054688	-53.435013
582.031250	-52.870197
583.007812	-53.535240
583.984375	-55.547108
584.960938	-53.788944
585.937500	-54.969292
586.914062	-53.571751
587.890625	-54.542820
588.867188	-54.868732
589.843750	-54.530460
590.820312	-53.207691
591.796875	-53.788738
592.773438	-53.369511
593.750000	-52.775234
594.726562	-53.824631
595.703125	-53.157578
596.679688	-53.992809
597.656250	-52.446861
598.632812	-54.392029
599.609375	-54.705811
600.585938	-53.978264
601.562500	-54.449802
602.539062	-54.297852
603.515625	-53.024338
604.492188	-54.174599
605.468750	-53.065933
606.445312	-54.761150
607.421875	-54.465736
608.398438	-54.329292
609.375000	-54.519157
610.351562	-54.281845
611.328125	-53.828182
612.304688	-53.417202
613.281250	-53.331406
614.257812	-54.102444
615.234375	-54.507099
616.210938	-53.206486
617.187500	-55.554928
618.164062	-54.919193
619.140625	-53.079422
620.117188	-52.866791
621.093750	-53.190666
622.070312	-54.127071
623.046875	-55.300846
624.023438	-53.228218
625.000000	-52.372322
625.976562	-53.985374
626.953125	-55.104534
627.929688	-54.868046
628.906250	-55.844902
629.882812	-53.911587
630.859375	-55.368088
631.835938	-54.376984
632.812500	-55.502724
633.789062	-53.830830
634.765625	-54.719376
635.742188	-54.006699
636.718750	-52.711803
637.695312	-53.776619
638.671875	-54.033508
639.648438	-54.200916
640.625000	-54.791943
641.601562	-55.269241
642.578125	-54.989258
643.554688	-55.119972
644.531250	-55.830978
645.507812	-54.968822
646.484375	-55.973804
647.460938	-53.030766
648.437500	-54.986462
649.414062	-55.241886
650.390625	-54.657066
651.367188	-54.988934
652.343750	-54.673496
653.320312	-54.281303
654.296875	-53.756985
655.273438	-54.885563
656.250000	-55.464951
657.226562	-56.492332
658.203125	-54.703705
659.179688	-54.454895
660.156250	-54.187851
661.132812	-54.134502
662.109375	-55.977974
663.085938	-54.149448
664.062500	-55.556404
665.039062	-55.322876
666.015625	-54.232395
666.992188	-54.234840
667.968750	-54.722752
668.945312	-54.925396
669.921875	-55.926910
670.898438	-55.900421
671.875000	-53.814499
672.851562	-55.310123
673.828125	-54.448166
674.804688	-55.192604
675.781250	-55.245098
676.757812	-53.760849
677.734375	-54.932346
678.710938	-55.656395
679.687500	-57.001194
680.664062	-56.444504
681.640625	-56.078598
682.617188	-55.961601
683.593750	-55.900875
684.570312	-54.865402
685.546875	-54.187481
686.523438	-54.999519
687.500000	-55.799503
688.476562	-54.798077
689.453125	-55.419197
690.429688	-55.386288
691.406250	-55.075802
692.382812	-54.588634
693.359375	-55.688675
694.335938	-54.746056
695.312500	-55.235954
696.289062	-54.876793
697.265625	-55.297218
698.242188	-54.485519
699.218750	-55.596981
700.195312	-54.629395
701.171875	-54.389427
702.148438	-54.740150
703.125000	-55.525623
704.101562	-55.325958
705.078125	-55.794579
706.054688	-56.664383
707.031250	-54.807163
708.007812	-55.915539
708.984375	-55.670979
709.960938	-53.754936
710.937500	-55.397324
711.914062	-55.030724
712.890625	-54.317360
713.867188	-54.629250
714.843750	-54.428013
715.820312	-54.324528
716.796875	-55.211384
717.773438	-55.502953
718.750000	-56.063202
719.726562	-54.893391
720.703125	-56.151684
721.679688	-54.862740
722.656250	-55.922012
723.632812	-55.152576
724.609375	-55.859245
725.585938	-56.168007
726.562500	-55.408695
727.539062	-54.958691
728.515625	-55.016079
729.492188	-55.604355
730.468750	-55.453789
731.445312	-55.320141
732.421875	-55.639782
733.398438	-54.224171
734.375000	-54.104088
735.351562	-55.428192
736.328125	-54.877602
737.304688	-55.723091
738.281250	-55.062778
739.257812	-56.051872
740.234375	-56.163570
741.210938	-55.354443
742.187500	-54.451584
743.164062	-55.559025
744.140625	-55.327347
745.117188	-54.849575
746.093750	-56.107666
747.070312	-56.233791
748.046875	-55.212765
749.023438	-55.868927
750.000000	-56.436470
750.976562	-56.137779
751.953125	-55.951199
752.929688	-56.871929
753.906250	-55.497414
754.882812	-56.032711
755.859375	-55.304058
756.835938	-56.173321
757.812500	-56.423077
758.789062	-54.865097
759.765625	-57.150566
760.742188	-55.996616
761.718750	-56.043587
762.695312	-54.983990
763.671875	-54.389694
764.648438	-54.570797
765.625000	-55.981255
766.601562	-54.049221
767.578125	-54.459114
768.554688	-54.855297
769.531250	-57.066151
770.507812	-55.095459
771.484375	-54.304546
772.460938	-55.287369
773.437500	-54.855263
774.414062	-55.106834
775.390625	-55.471909
776.367188	-55.927952
777.343750	-57.071568
778.320312	-55.360165
779.296875	-55.743946
780.273438	-55.577553
781.250000	-55.713932
782.226562	-55.634182
783.203125	-56.124413
784.179688	-56.200611
785.156250	-57.823368
786.132812	-56.066666
787.109375	-56.206482
788.085938	-56.428940
789.062500	-56.816086
790.039062	-56.796753
791.015625	-57.020885
791.992188	-56.813606
792.968750	-56.925316
793.945312	-55.726776
794.921875	-56.548660
795.898438	-56.303905
796.875000	-55.105431
797.851562	-56.793354
798.828125	-56.071671
799.804688	-56.202091
800.781250	-57.413242
801.757812	-55.881119
802.734375	-55.696247
803.710938	-55.389648
804.687500	-56.051422
805.664062	-56.046902
806.640625	-55.069218
807.617188	-55.691933
808.593750	-56.399715
809.570312	-57.102051
810.546875	-55.605274
811.523438	-55.571941
812.500000	-56.448650
813.476562	-55.490513
814.453125	-56.713379
815.429688	-56.944611
816.406250	-55.729687
817.382812	-55.763416
818.359375	-57.206291
819.335938	-55.962723
820.312500	-55.963272
821.289062	-55.585495
822.265625	-55.870052
823.242188	-56.225269
824.218750	-55.074543
825.195312	-55.834522
826.171875	-56.973904
827.148438	-58.528706
828.125000	-57.279320
829.101562	-55.380100
830.078125	-56.371925
831.054688	-57.202034
832.031250	-56.995209
833.007812	-56.259605
833.984375	-56.516605
834.960938	-56.188454
835.937500	-56.997772
836.914062	-57.865211
837.890625	-56.331741
838.867188	-55.992706
839.843750	-56.500698
840.820312	-56.399952
841.796875	-55.308342
842.773438	-56.597347
843.750000	-55.907200
844.726562	-56.598282
845.703125	-56.896862
846.679688	-56.565037
847.656250	-55.596642
848.632812	-54.959801
849.609375	-56.243740
850.585938	-55.230877
851.562500	-56.114697
852.539062	-56.507092
853.515625	-56.208839
854.492188	-54.774429
855.468750	-54.037270
856.445312	-55.149681
857.421875	-55.451797
858.398438	-57.198410
859.375000	-56.632217
860.351562	-57.068295
861.328125	-56.271412
862.304688	-56.165913
863.281250	-56.104015
864.257812	-55.422550
865.234375	-55.406570
866.210938	-57.150089
867.187500	-55.524643
868.164062	-56.819035
869.140625	-57.008041
870.117188	-57.405449
871.093750	-55.733986
872.070312	-55.774574
873.046875	-56.310127
874.023438	-55.317650
875.000000	-55.257366
875.976562	-56.187447
876.953125	-56.030048
877.929688	-56.019058
878.906250	-55.193729
879.882812	-54.068836
880.859375	-56.584465
881.835938	-55.771282
882.812500	-55.195217
883.789062	-55.836147
884.765625	-55.616417
885.742188	-55.730850
886.718750	-56.141838
887.695312	-56.811825
888.671875	-55.362804
889.648438	-55.150318
890.625000	-56.985519
891.601562	-56.363499
892.578125	-55.348343
893.554688	-56.452118
894.531250	-53.888927
895.507812	-54.670719
896.484375	-55.302071
897.460938	-54.453327
898.437500	-55.036297
899.414062	-54.948666
900.390625	-54.802044
901.367188	-56.133907
902.343750	-55.395039
903.320312	-55.286247
904.296875	-54.863239
905.273438	-54.614780
906.250000	-54.859367
907.226562	-54.368149
908.203125	-55.041065
909.179688	-54.996738
910.156250	-53.824436
911.132812	-53.405075
912.109375	-54.767052
913.085938	-54.903069
914.062500	-54.646935
915.039062	-55.278297
916.015625	-56.404945
916.992188	-55.892765
917.968750	-55.062668
918.945312	-54.552547
919.921875	-54.450535
920.898438	-54.503708
921.875000	-55.316948
922.851562	-54.216297
923.828125	-55.058338
924.804688	-58.170422
925.781250	-56.025990
926.757812	-54.673607
927.734375	-55.604546
928.710938	-55.157078
929.687500	-55.567497
930.664062	-56.110516
931.640625	-56.063171
932.617188	-56.300930
933.593750	-55.781372
934.570312	-54.205326
935.546875	-54.274071
936.523438	-54.760296
937.500000	-54.493607
938.476562	-55.738949
939.453125	-54.216648
940.429688	-53.202072
941.406250	-55.028614
942.382812	-54.806351
943.359375	-54.575966
944.335938	-55.599010
945.312500	-54.743084
946.289062	-54.204300
947.265625	-55.085964
948.242188	-55.799511
949.218750	-53.706539
950.195312	-55.936832
951.171875	-55.779747
952.148438	-55.455692
953.125000	-54.655396
954.101562	-54.743782
955.078125	-55.086720
956.054688	-55.315998
957.031250	-54.520679
958.007812	-55.555565
958.984375	-55.652328
959.960938	-54.473770
960.937500	-52.112156
961.914062	-53.732723
962.890625	-53.794464
963.867188	-53.279877
964.843750	-53.342915
965.820312	-52.860195
966.796875	-54.708572
967.773438	-56.058636
968.750000	-55.912956
969.726562	-55.740608
970.703125	-54.260456
971.679688	-55.082745
972.656250	-55.785915
973.632812	-56.070675
974.609375	-54.860180
975.585938	-54.619919
976.562500	-54.162945
977.539062	-52.841385
978.515625	-53.030243
979.492188	-53.995022
980.468750	-53.098370
981.445312	-54.858315
982.421875	-54.486717
983.398438	-54.131123
984.375000	-52.635078
985.351562	-53.288349
986.328125	-53.202061
987.304688	-54.354500
988.281250	-53.622623
989.257812	-54.990204
990.234375	-54.238197
991.210938	-54.342476
992.187500	-54.233086
993.164062	-54.185852
994.140625	-53.338123
995.117188	-52.707039
996.093750	-52.070431
997.070312	-51.745777
998.046875	-52.091614
999.023438	-53.754604
1000.000000	-53.685974
1000.976562	-54.351604
1001.953125	-54.169937
1002.929688	-53.825127
1003.906250	-55.193729
1004.882812	-54.054306
1005.859375	-54.520985
1006.835938	-53.004356
1007.812500	-55.281952
1008.789062	-53.662773
1009.765625	-53.394665
1010.742188	-52.205578
1011.718750	-54.300297
1012.695312	-54.845509
1013.671875	-55.035492
1014.648438	-53.783066
1015.625000	-55.048389
1016.601562	-54.293396
1017.578125	-53.896336
1018.554688	-53.396095
1019.531250	-51.990383
1020.507812	-53.781616
1021.484375	-51.952274
1022.460938	-52.751057
1023.437500	-52.665054
1024.414062	-53.314095
1025.390625	-51.907814
1026.367188	-52.422039
1027.343750	-53.834610
1028.320312	-53.057217
1029.296875	-52.297794
1030.273438	-51.992954
1031.250000	-52.608971
1032.226562	-53.712162
1033.203125	-54.261101
1034.179688	-54.816185
1035.156250	-53.865402
1036.132812	-54.307137
1037.109375	-52.786583
1038.085938	-52.397564
1039.062500	-51.538937
1040.039062	-52.012394
1041.015625	-53.444778
1041.992188	-52.541481
1042.968750	-52.448139
1043.945312	-51.443993
1044.921875	-52.356400
1045.898438	-52.730583
1046.875000	-52.427505
1047.851562	-52.125999
1048.828125	-53.105511
1049.804688	-52.153339
1050.781250	-52.430683
1051.757812	-52.294304
1052.734375	-53.035450
1053.710938	-53.088329
1054.687500	-53.448250
1055.664062	-54.084263
1056.640625	-53.973873
1057.617188	-53.468014
1058.593750	-52.283333
1059.570312	-52.250481
1060.546875	-52.206127
1061.523438	-53.877148
1062.500000	-54.091309
1063.476562	-53.998062
1064.453125	-53.457146
1065.429688	-52.236877
1066.406250	-52.936241
1067.382812	-52.225731
1068.359375	-51.890461
1069.335938	-52.456356
1070.312500	-51.176445
1071.289062	-51.765205
1072.265625	-53.029697
1073.242188	-52.183697
1074.218750	-51.411396
1075.195312	-51.394123
1076.171875	-53.902691
1077.148438	-53.191647
1078.125000	-53.164825
1079.101562	-52.340843
1080.078125	-53.136124
1081.054688	-51.414612
1082.031250	-52.616974
1083.007812	-52.349220
1083.984375	-52.756554
1084.960938	-52.832195
1085.937500	-53.186367
1086.914062	-53.422810
1087.890625	-52.984009
1088.867188	-54.103550
1089.843750	-52.342079
1090.820312	-52.565414
1091.796875	-52.642643
1092.773438	-52.773090
1093.750000	-51.883522
1094.726562	-52.081127
1095.703125	-51.028957
1096.679688	-52.000759
1097.656250	-52.852291
1098.632812	-52.645073
1099.609375	-52.345474
1100.585938	-53.172890
1101.562500	-53.039520
1102.539062	-52.932701
1103.515625	-52.445641
1104.492188	-53.160427
1105.468750	-52.623695
1106.445312	-53.376358
1107.421875	-54.319084
1108.398438	-53.244167
1109.375000	-54.146244
1110.351562	-53.598400
1111.328125	-53.613140
1112.304688	-53.090252
1113.281250	-52.454243
1114.257812	-54.245148
1115.234375	-54.862270
1116.210938	-52.839508
1117.187500	-51.616119
1118.164062	-51.611362
1119.140625	-50.916935
1120.117188	-52.260780
1121.093750	-52.130390
1122.070312	-53.614311
1123.046875	-52.897152
1124.023438	-52.645245
1125.000000	-52.750221
1125.976562	-52.344643
1126.953125	-53.012871
1127.929688	-54.347317
1128.906250	-54.505119
1129.882812	-54.074547
1130.859375	-53.989754
1131.835938	-54.804630
1132.812500	-55.724583
1133.789062	-53.649296
1134.765625	-52.985184
1135.742188	-53.193481
1136.718750	-53.725117
1137.695312	-53.149662
1138.671875	-53.689487
1139.648438	-52.768162
1140.625000	-53.984520
1141.601562	-54.429607
1142.578125	-52.696831
1143.554688	-51.677345
1144.531250	-52.286572
1145.507812	-53.262032
1146.484375	-53.166039
1147.460938	-53.911694
1148.437500	-53.553013
1149.414062	-53.308010
1150.390625	-55.023609
1151.367188	-55.324497
1152.343750	-53.899391
1153.320312	-54.257595
1154.296875	-54.468781
1155.273438	-53.539455
1156.250000	-53.748806
1157.226562	-54.205837
1158.203125	-55.030781
1159.179688	-54.862720
1160.156250	-55.678978
1161.132812	-53.744122
1162.109375	-53.222939
1163.085938	-55.260967
1164.062500	-55.414989
1165.039062	-53.713997
1166.015625	-53.500469
1166.992188	-53.525021
1167.968750	-53.307800
1168.945312	-53.960526
1169.921875	-53.683445
1170.898438	-55.174019
1171.875000	-54.885342
1172.851562	-53.032398
1173.828125	-53.776203
1174.804688	-53.024723
1175.781250	-53.938869
1176.757812	-54.497299
1177.734375	-53.412552
1178.710938	-52.513931
1179.687500	-53.799919
1180.664062	-53.573517
1181.640625	-53.500046
1182.617188	-54.227901
1183.593750	-54.993618
1184.570312	-55.414494
1185.546875	-54.792355
1186.523438	-54.429699
1187.500000	-53.940540
1188.476562	-54.776047
1189.453125	-54.937321
1190.429688	-54.997086
1191.406250	-55.746948
1192.382812	-54.678410
1193.359375	-56.106987
1194.335938	-54.282696
1195.312500	-53.960735
1196.289062	-54.052376
1197.265625	-54.943249
1198.242188	-55.385593
1199.218750	-54.142696
1200.195312	-54.394489
1201.171875	-55.483875
1202.148438	-54.354950
1203.125000	-54.794994
1204.101562	-54.242382
1205.078125	-55.272423
1206.054688	-54.713509
1207.031250	-55.268051
1208.007812	-54.002850
1208.984375	-53.776913
1209.960938	-54.273716
1210.937500	-55.335960
1211.914062	-55.687893
1212.890625	-56.237453
1213.867188	-55.589989
1214.843750	-55.078411
1215.820312	-54.471016
1216.796875	-56.524200
1217.773438	-56.465805
1218.750000	-55.844219
1219.726562	-55.578259
1220.703125	-56.084091
1221.679688	-55.022511
1222.656250	-54.731445
1223.632812	-54.862251
1224.609375	-54.520092
1225.585938	-55.087044
1226.562500	-56.844532
1227.539062	-56.512100
1228.515625	-55.273899
1229.492188	-55.762928
1230.468750	-56.143131
1231.445312	-57.013294
1232.421875	-55.210770
1233.398438	-56.023647
1234.375000	-56.343021
1235.351562	-56.014931
1236.328125	-57.446621
1237.304688	-55.926666
1238.281250	-53.927521
1239.257812	-55.081085
1240.234375	-55.063736
1241.210938	-54.933727
1242.187500	-56.124699
1243.164062	-56.070107
1244.140625	-55.733501
1245.117188	-54.939262
1246.093750	-55.309628
1247.070312	-55.823563
1248.046875	-55.920063
1249.023438	-55.282528
1250.000000	-55.045952
1250.976562	-55.582870
1251.953125	-55.307838
1252.929688	-56.368408
1253.906250	-56.340599
1254.882812	-55.559959
1255.859375	-56.662407
1256.835938	-55.532982
1257.812500	-55.615459
1258.789062	-55.857067
1259.765625	-55.794025
1260.742188	-56.592266
1261.718750	-57.541378
1262.695312	-56.457668
1263.671875	-56.825386
1264.648438	-56.308964
1265.625000	-56.029388
1266.601562	-56.542763
1267.578125	-55.787239
1268.554688	-55.787132
1269.531250	-56.697792
1270.507812	-55.748825
1271.484375	-56.395618
1272.460938	-57.728134
1273.437500	-56.361179
1274.414062	-56.035378
1275.390625	-55.523979
1276.367188	-55.384296
1277.343750	-55.024994
1278.320312	-56.003662
1279.296875	-56.779827
1280.273438	-58.005894
1281.250000	-56.342663
1282.226562	-55.760529
1283.203125	-57.478638
1284.179688	-56.666691
1285.156250	-57.397640
1286.132812	-56.426579
1287.109375	-56.727116
1288.085938	-57.300907
1289.062500	-56.446663
1290.039062	-57.160774
1291.015625	-56.352371
1291.992188	-56.149220
1292.968750	-56.533226
1293.945312	-56.085182
1294.921875	-56.014977
1295.898438	-56.635948
1296.875000	-55.442226
1297.851562	-55.669605
1298.828125	-55.720512
1299.804688	-56.915325
1300.781250	-57.025799
1301.757812	-56.746437
1302.734375	-57.181320
1303.710938	-57.475899
1304.687500	-57.871746
1305.664062	-56.798923
1306.640625	-56.283234
1307.617188	-54.965481
1308.593750	-54.331520
1309.570312	-55.251553
1310.546875	-56.177418
1311.523438	-56.598988
1312.500000	-55.071968
1313.476562	-56.540268
1314.453125	-55.624504
1315.429688	-56.783833
1316.406250	-57.043446
1317.382812	-56.458298
1318.359375	-56.849602
1319.335938	-55.208950
1320.312500	-55.687023
1321.289062	-56.163792
1322.265625	-55.204472
1323.242188	-55.757175
1324.218750	-54.666477
1325.195312	-55.110336
1326.171875	-55.278988
1327.148438	-54.666058
1328.125000	-54.871681
1329.101562	-56.260113
1330.078125	-56.564434
1331.054688	-56.505733
1332.031250	-56.300919
1333.007812	-56.284634
1333.984375	-57.198036
1334.960938	-56.506058
1335.937500	-56.554295
1336.914062	-57.040905
1337.890625	-56.724007
1338.867188	-55.412319
1339.843750	-55.505848
1340.820312	-55.730804
1341.796875	-56.273006
1342.773438	-56.094982
1343.750000	-54.851559
1344.726562	-56.615311
1345.703125	-56.674110
1346.679688	-56.977875
1347.656250	-56.033821
1348.632812	-57.295265
1349.609375	-56.590378
1350.585938	-57.321186
1351.562500	-57.855789
1352.539062	-57.026100
1353.515625	-57.193642
1354.492188	-56.938648
1355.468750	-55.803341
1356.445312	-54.992828
1357.421875	-55.078400
1358.398438	-55.026722
1359.375000	-56.612053
1360.351562	-56.924191
1361.328125	-55.845688
1362.304688	-55.242031
1363.281250	-55.295498
1364.257812	-55.552567
1365.234375	-56.369453
1366.210938	-56.167305
1367.187500	-55.056549
1368.164062	-54.531605
1369.140625	-56.077045
1370.117188	-55.686359
1371.093750	-55.162628
1372.070312	-53.051971
1373.046875	-55.482174
1374.023438	-56.101830
1375.000000	-55.518612
1375.976562	-56.102203
1376.953125	-55.070408
1377.929688	-54.556080
1378.906250	-55.623562
1379.882812	-56.290623
1380.859375	-56.164696
1381.835938	-56.316280
1382.812500	-57.662445
1383.789062	-56.183369
1384.765625	-54.822517
1385.742188	-54.850098
1386.718750	-55.457333
1387.695312	-55.273430
1388.671875	-56.317307
1389.648438	-53.648064
1390.625000	-53.924236
1391.601562	-53.429852
1392.578125	-54.335724
1393.554688	-54.101608
1394.531250	-54.876144
1395.507812	-53.929882
1396.484375	-53.612534
1397.460938	-54.707100
1398.437500	-55.102314
1399.414062	-54.158390
1400.390625	-54.779633
1401.367188	-52.567657
1402.343750	-53.665466
1403.320312	-53.210365
1404.296875	-54.045147
1405.273438	-53.565292
1406.250000	-53.625870
1407.226562	-53.337479
1408.203125	-53.313984
1409.179688	-55.123451
1410.156250	-55.136635
1411.132812	-53.465145
1412.109375	-54.186543
1413.085938	-54.878456
1414.062500	-55.314445
1415.039062	-53.948208
1416.015625	-53.781788
1416.992188	-54.922295
1417.968750	-57.536983
1418.945312	-56.141380
1419.921875	-54.872562
1420.898438	-55.131298
1421.875000	-54.053192
1422.851562	-54.962574
1423.828125	-55.841331
1424.804688	-56.000469
1425.781250	-54.330723
1426.757812	-53.106270
1427.734375	-52.624847
1428.710938	-54.460514
1429.687500	-52.896614
1430.664062	-52.434052
1431.640625	-52.228249
1432.617188	-54.223034
1433.593750	-53.740925
1434.570312	-53.700859
1435.546875	-54.061962
1436.523438	-53.783459
1437.500000	-52.875324
1438.476562	-54.565517
1439.453125	-54.374176
1440.429688	-54.231529
1441.406250	-55.444302
1442.382812	-53.756634
1443.359375	-52.932850
1444.335938	-53.583511
1445.312500	-54.290333
1446.289062	-53.473797
1447.265625	-52.258907
1448.242188	-53.603653
1449.218750	-51.480438
1450.195312	-51.184612
1451.171875	-50.232761
1452.148438	-50.835918
1453.125000	-51.682652
1454.101562	-53.444176
1455.078125	-53.254059
1456.054688	-52.192581
1457.031250	-52.119587
1458.007812	-53.468582
1458.984375	-52.660736
1459.960938	-51.707558
1460.937500	-54.032341
1461.914062	-53.795963
1462.890625	-51.826256
1463.867188	-51.477600
1464.843750	-51.994499
1465.820312	-53.221451
1466.796875	-52.544762
1467.773438	-51.696255
1468.750000	-52.601986
1469.726562	-52.028076
1470.703125	-50.737137
1471.679688	-51.865250
1472.656250	-49.944191
1473.632812	-50.709225
1474.609375	-52.448147
1475.585938	-50.317963
1476.562500	-52.472012
1477.539062	-51.966385
1478.515625	-52.683128
1479.492188	-52.583271
1480.468750	-53.467216
1481.445312	-52.643166
1482.421875	-53.651432
1483.398438	-52.672703
1484.375000	-52.648556
1485.351562	-53.622719
1486.328125	-52.509598
1487.304688	-51.952911
1488.281250	-51.727657
1489.257812	-51.764400
1490.234375	-53.367317
1491.210938	-51.224327
1492.187500	-53.214420
1493.164062	-52.358032
1494.140625	-50.081467
1495.117188	-49.697277
1496.093750	-50.889347
1497.070312	-51.041348
1498.046875	-49.494724
1499.023438	-50.013844
1500.000000	-52.885620
1500.976562	-52.612675
1501.953125	-52.085602
1502.929688	-52.336864
1503.906250	-50.744694
1504.882812	-52.796879
1505.859375	-50.838856
1506.835938	-51.953442
1507.812500	-51.897331
1508.789062	-51.675060
1509.765625	-51.422539
1510.742188	-51.483513
1511.718750	-52.478416
1512.695312	-50.398731
1513.671875	-51.196602
1514.648438	-50.370842
1515.625000	-50.870270
1516.601562	-51.266724
1517.578125	-50.923347
1518.554688	-48.377132
1519.531250	-50.906452
1520.507812	-50.643101
1521.484375	-50.837822
1522.460938	-50.993084
1523.437500	-50.229290
1524.414062	-50.130245
1525.390625	-51.186119
1526.367188	-50.926708
1527.343750	-50.776855
1528.320312	-50.217342
1529.296875	-50.213833
1530.273438	-50.274242
1531.250000	-49.832542
1532.226562	-49.957390
1533.203125	-50.519966
1534.179688	-50.297085
1535.156250	-50.093571
1536.132812	-50.675385
1537.109375	-51.521507
1538.085938	-49.741867
1539.062500	-48.938187
1540.039062	-50.284023
1541.015625	-50.307861
1541.992188	-50.317940
1542.968750	-49.542809
1543.945312	-48.469303
1544.921875	-48.337608
1545.898438	-50.196812
1546.875000	-50.157265
1547.851562	-48.435059
1548.828125	-50.060501
1549.804688	-50.921467
1550.781250	-50.670467
1551.757812	-51.036232
1552.734375	-50.421837
1553.710938	-48.665741
1554.687500	-50.066429
1555.664062	-49.467663
1556.640625	-49.614475
1557.617188	-48.828045
1558.593750	-49.039265
1559.570312	-50.217445
1560.546875	-49.657436
1561.523438	-47.962795
1562.500000	-48.225163
1563.476562	-48.294010
1564.453125	-49.039516
1565.429688	-48.379234
1566.406250	-48.335579
1567.382812	-48.999401
1568.359375	-49.216526
1569.335938	-49.241932
1570.312500	-48.687519
1571.289062	-48.538853
1572.265625	-48.518986
1573.242188	-48.446793
1574.218750	-47.624931
1575.195312	-48.801739
1576.171875	-49.310459
1577.148438	-48.653687
1578.125000	-49.623783
1579.101562	-49.254948
1580.078125	-49.069820
1581.054688	-49.444977
1582.031250	-49.649330
1583.007812	-49.017498
1583.984375	-48.086872
1584.960938	-49.784771
1585.937500	-48.421860
1586.914062	-48.218838
1587.890625	-48.590652
1588.867188	-50.034393
1589.843750	-48.719734
1590.820312	-48.637245
1591.796875	-48.824265
1592.773438	-48.463394
1593.750000	-47.924587
1594.726562	-48.012474
1595.703125	-48.272190
1596.679688	-49.705669
1597.656250	-47.724190
1598.632812	-48.008110
1599.609375	-48.702633
1600.585938	-47.625099
1601.562500	-49.559547
1602.539062	-48.865200
1603.515625	-49.447845
1604.492188	-49.237400
1605.468750	-48.492355
1606.445312	-48.132454
1607.421875	-47.968971
1608.398438	-50.362320
1609.375000	-50.256470
1610.351562	-49.405506
1611.328125	-50.337223
1612.304688	-49.187706
1613.281250	-49.318985
1614.257812	-50.611549
1615.234375	-49.333492
1616.210938	-49.768078
1617.187500	-49.225208
1618.164062	-48.514347
1619.140625	-49.444286
1620.117188	-48.821884
1621.093750	-48.705597
1622.070312	-49.766472
1623.046875	-49.669006
1624.023438	-48.150852
1625.000000	-50.117851
1625.976562	-48.459454
1626.953125	-49.562874
1627.929688	-50.260109
1628.906250	-50.146660
1629.882812	-52.001003
1630.859375	-50.796524
1631.835938	-50.002369
1632.812500	-53.204273
1633.789062	-53.398586
1634.765625	-52.312786
1635.742188	-50.531799
1636.718750	-50.094879
1637.695312	-51.703415
1638.671875	-50.706093
1639.648438	-50.695702
1640.625000	-50.592972
1641.601562	-49.776745
1642.578125	-51.198765
1643.554688	-50.720161
1644.531250	-50.132938
1645.507812	-50.320709
1646.484375	-50.809700
1647.460938	-52.150578
1648.437500	-50.527035
1649.414062	-50.199558
1650.390625	-51.648079
1651.367188	-50.269379
1652.343750	-50.838020
1653.320312	-50.739803
1654.296875	-51.977818
1655.273438	-50.051289
1656.250000	-49.853786
1657.226562	-52.823463
1658.203125	-51.793850
1659.179688	-50.487556
1660.156250	-51.638870
1661.132812	-51.964714
1662.109375	-51.407001
1663.085938	-50.550117
1664.062500	-49.985321
1665.039062	-50.810287
1666.015625	-51.395447
1666.992188	-51.826771
1667.968750	-52.302929
1668.945312	-51.468487
1669.921875	-52.158642
1670.898438	-52.278809
1671.875000	-52.212494
1672.851562	-51.541115
1673.828125	-52.314579
1674.804688	-52.387753
1675.781250	-52.427074
1676.757812	-53.004272
1677.734375	-53.241043
1678.710938	-50.811230
1679.687500	-52.655331
1680.664062	-52.997234
1681.640625	-54.950523
1682.617188	-51.786896
1683.593750	-51.868488
1684.570312	-52.781006
1685.546875	-50.406467
1686.523438	-51.644405
1687.500000	-53.204742
1688.476562	-51.524086
1689.453125	-52.569469
1690.429688	-51.228790
1691.406250	-52.841240
1692.382812	-50.384659
1693.359375	-51.001301
1694.335938	-51.924244
1695.312500	-53.361298
1696.289062	-51.436405
1697.265625	-53.490314
1698.242188	-53.960335
1699.218750	-53.360428
1700.195312	-52.551582
1701.171875	-52.788319
1702.148438	-54.010918
1703.125000	-52.643360
1704.101562	-54.673950
1705.078125	-53.051765
1706.054688	-52.793159
1707.031250	-54.940933
1708.007812	-53.151974
1708.984375	-53.735458
1709.960938	-52.196228
1710.937500	-52.481670
1711.914062	-52.798229
1712.890625	-52.331604
1713.867188	-53.877079
1714.843750	-54.192135
1715.820312	-52.580772
1716.796875	-53.705685
1717.773438	-52.665260
1718.750000	-53.728039
1719.726562	-52.182411
1720.703125	-54.424412
1721.679688	-54.116318
1722.656250	-54.271587
1723.632812	-54.686344
1724.609375	-53.551636
1725.585938	-53.024326
1726.562500	-54.637608
1727.539062	-55.227135
1728.515625	-53.274582
1729.492188	-53.669140
1730.468750	-54.653614
1731.445312	-54.759792
1732.421875	-54.058445
1733.398438	-54.040321
1734.375000	-55.017632
1735.351562	-53.789131
1736.328125	-53.817570
1737.304688	-53.280235
1738.281250	-53.332973
1739.257812	-54.913242
1740.234375	-55.407726
1741.210938	-54.719143
1742.187500	-53.088753
1743.164062	-53.606285
1744.140625	-54.758198
1745.117188	-53.888317
1746.093750	-54.860294
1747.070312	-55.128586
1748.046875	-54.745312
1749.023438	-53.981277
1750.000000	-54.094051
1750.976562	-54.304695
1751.953125	-54.148167
1752.929688	-54.368313
1753.906250	-52.842411
1754.882812	-53.183422
1755.859375	-54.234409
1756.835938	-54.124134
1757.812500	-55.224724
1758.789062	-56.216724
1759.765625	-54.357437
1760.742188	-54.141674
1761.718750	-55.084866
1762.695312	-53.853470
1763.671875	-55.459110
1764.648438	-56.547108
1765.625000	-56.790855
1766.601562	-56.801422
1767.578125	-55.009754
1768.554688	-55.078117
1769.531250	-54.828148
1770.507812	-54.263306
1771.484375	-55.373531
1772.460938	-55.819870
1773.437500	-55.309566
1774.414062	-53.927921
1775.390625	-55.444202
1776.367188	-54.784721
1777.343750	-55.574371
1778.320312	-56.077019
1779.296875	-54.323776
1780.273438	-54.362801
1781.250000	-54.621906
1782.226562	-55.797348
1783.203125	-55.857807
1784.179688	-55.534531
1785.156250	-55.557526
1786.132812	-54.330013
1787.109375	-55.428284
1788.085938	-56.390079
1789.062500	-56.778831
1790.039062	-55.890011
1791.015625	-56.143875
1791.992188	-56.042645
1792.968750	-57.878891
1793.945312	-57.138863
1794.921875	-56.097347
1795.898438	-56.833286
1796.875000	-56.505566
1797.851562	-55.711773
1798.828125	-55.363407
1799.804688	-55.709953
1800.781250	-55.437241
1801.757812	-56.141510
1802.734375	-54.355759
1803.710938	-55.289993
1804.687500	-54.504402
1805.664062	-55.349651
1806.640625	-56.372105
1807.617188	-54.742592
1808.593750	-57.014351
1809.570312	-57.070610
1810.546875	-56.089630
1811.523438	-56.562077
1812.500000	-56.681812
1813.476562	-56.815498
1814.453125	-55.058662
1815.429688	-55.683369
1816.406250	-55.626728
1817.382812	-55.460590
1818.359375	-55.384827
1819.335938	-55.043804
1820.312500	-55.674370
1821.289062	-56.462814
1822.265625	-55.790119
1823.242188	-55.803474
1824.218750	-54.539722
1825.195312	-54.242916
1826.171875	-54.756943
1827.148438	-55.601936
1828.125000	-54.550976
1829.101562	-54.332729
1830.078125	-55.302158
1831.054688	-54.513443
1832.031250	-53.622517
1833.007812	-53.638138
1833.984375	-54.981388
1834.960938	-56.096210
1835.937500	-56.063065
1836.914062	-54.615028
1837.890625	-55.571041
1838.867188	-55.015602
1839.843750	-54.507210
1840.820312	-53.682747
1841.796875	-55.525673
1842.773438	-54.239494
1843.750000	-53.726341
1844.726562	-53.183056
1845.703125	-55.090878
1846.679688	-54.402229
1847.656250	-56.671841
1848.632812	-55.522690
1849.609375	-54.085781
1850.585938	-52.905949
1851.562500	-53.604118
1852.539062	-53.951046
1853.515625	-55.198975
1854.492188	-54.926853
1855.468750	-53.826271
1856.445312	-53.579037
1857.421875	-53.345757
1858.398438	-52.336025
1859.375000	-54.921791
1860.351562	-57.308941
1861.328125	-57.054066
1862.304688	-55.412304
1863.281250	-54.531631
1864.257812	-54.007370
1865.234375	-54.779587
1866.210938	-54.006943
1867.187500	-54.590538
1868.164062	-55.387135
1869.140625	-54.190552
1870.117188	-55.129520
1871.093750	-54.566490
1872.070312	-53.425335
1873.046875	-55.207245
1874.023438	-54.211308
1875.000000	-53.057621
1875.976562	-53.638908
1876.953125	-53.201820
1877.929688	-53.624874
1878.906250	-53.817707
1879.882812	-54.444798
1880.859375	-53.884289
1881.835938	-54.517879
1882.812500	-55.212662
1883.789062	-54.839539
1884.765625	-54.822586
1885.742188	-54.108398
1886.718750	-52.533176
1887.695312	-54.058777
1888.671875	-54.527702
1889.648438	-55.601265
1890.625000	-54.124474
1891.601562	-53.760342
1892.578125	-51.833263
1893.554688	-52.506531
1894.531250	-53.537186
1895.507812	-53.077301
1896.484375	-53.210281
1897.460938	-52.177849
1898.437500	-54.220966
1899.414062	-54.293819
1900.390625	-54.044701
1901.367188	-52.523853
1902.343750	-52.824055
1903.320312	-53.589020
1904.296875	-54.634899
1905.273438	-52.596294
1906.250000	-51.842728
1907.226562	-53.648464
1908.203125	-52.482510
1909.179688	-51.489937
1910.156250	-52.473362
1911.132812	-52.637379
1912.109375	-52.010525
1913.085938	-52.845348
1914.062500	-52.301723
1915.039062	-52.113182
1916.015625	-52.158836
1916.992188	-51.357677
1917.968750	-50.507740
1918.945312	-50.241150
1919.921875	-50.712452
1920.898438	-51.112637
1921.875000	-53.090187
1922.851562	-51.062450
1923.828125	-52.495998
1924.804688	-51.427666
1925.781250	-51.070343
1926.757812	-50.664848
1927.734375	-51.983730
1928.710938	-51.389168
1929.687500	-51.691341
1930.664062	-51.441406
1931.640625	-51.132397
1932.617188	-52.294949
1933.593750	-49.829075
1934.570312	-49.493507
1935.546875	-52.578033
1936.523438	-52.090057
1937.500000	-52.193031
1938.476562	-50.018383
1939.453125	-50.274914
1940.429688	-51.733238
1941.406250	-50.697021
1942.382812	-50.521698
1943.359375	-50.942059
1944.335938	-50.272228
1945.312500	-50.763443
1946.289062	-50.389843
1947.265625	-48.635326
1948.242188	-50.262287
1949.218750	-51.606113
1950.195312	-49.973381
1951.171875	-51.356499
1952.148438	-49.989326
1953.125000	-49.619923
1954.101562	-50.022331
1955.078125	-50.713348
1956.054688	-48.632336
1957.031250	-49.385258
1958.007812	-49.691063
1958.984375	-49.183315
1959.960938	-49.340763
1960.937500	-49.415718
1961.914062	-49.011665
1962.890625	-48.690708
1963.867188	-47.567188
1964.843750	-47.827751
1965.820312	-47.604794
1966.796875	-48.279095
1967.773438	-48.281071
1968.750000	-48.654404
1969.726562	-48.355888
1970.703125	-48.057026
1971.679688	-47.363064
1972.656250	-50.883102
1973.632812	-48.223370
1974.609375	-47.828487
1975.585938	-46.762123
1976.562500	-50.027481
1977.539062	-47.474876
1978.515625	-46.579456
1979.492188	-48.365662
1980.468750	-49.617222
1981.445312	-49.146198
1982.421875	-49.148670
1983.398438	-45.833218
1984.375000	-46.555676
1985.351562	-46.190887
1986.328125	-47.065754
1987.304688	-45.902061
1988.281250	-47.987278
1989.257812	-47.983162
1990.234375	-46.611313
1991.210938	-45.642265
1992.187500	-45.964542
1993.164062	-47.080696
1994.140625	-47.487591
1995.117188	-46.498726
1996.093750	-46.880939
1997.070312	-47.616459
1998.046875	-44.751522
1999.023438	-45.813889
2000.000000	-46.266083
2000.976562	-45.395012
2001.953125	-46.711365
2002.929688	-44.817207
2003.906250	-46.366386
2004.882812	-45.945362
2005.859375	-45.055111
2006.835938	-46.011189
2007.812500	-44.453709
2008.789062	-45.050571
2009.765625	-45.432255
2010.742188	-45.625092
2011.718750	-45.382378
2012.695312	-45.979969
2013.671875	-46.151466
2014.648438	-45.435951
2015.625000	-44.066223
2016.601562	-46.244114
2017.578125	-44.568325
2018.554688	-45.671558
2019.531250	-45.727493
2020.507812	-43.938560
2021.484375	-46.311790
2022.460938	-43.755394
2023.437500	-44.796909
2024.414062	-45.268555
2025.390625	-45.306057
2026.367188	-42.028309
2027.343750	-41.974140
2028.320312	-42.735432
2029.296875	-41.705246
2030.273438	-42.607502
2031.250000	-43.911579
2032.226562	-43.723072
2033.203125	-43.870399
2034.179688	-42.630936
2035.156250	-43.311573
2036.132812	-45.676296
2037.109375	-41.700993
2038.085938	-44.355694
2039.062500	-44.238079
2040.039062	-43.310017
2041.015625	-43.991798
2041.992188	-42.444851
2042.968750	-41.545441
2043.945312	-41.819798
2044.921875	-41.704433
2045.898438	-39.268723
2046.875000	-42.435246
2047.851562	-40.977848
2048.828125	-40.520531
2049.804688	-39.825989
2050.781250	-42.088707
2051.757812	-43.317905
2052.734375	-42.160141
2053.710938	-40.225174
2054.687500	-40.221024
2055.664062	-41.479206
2056.640625	-42.518364
2057.617188	-39.394844
2058.593750	-41.359657
2059.570312	-42.353924
2060.546875	-40.856796
2061.523438	-40.671852
2062.500000	-40.066124
2063.476562	-40.291122
2064.453125	-39.696526
2065.429688	-40.424496
2066.406250	-40.216366
2067.382812	-38.481430
2068.359375	-42.098629
2069.335938	-40.531330
2070.312500	-41.413139
2071.289062	-39.712360
2072.265625	-39.772663
2073.242188	-39.449867
2074.218750	-41.421165
2075.195312	-39.047508
2076.171875	-39.867779
2077.148438	-39.420002
2078.125000	-38.654491
2079.101562	-38.489109
2080.078125	-39.724087
2081.054688	-38.246239
2082.031250	-38.729862
2083.007812	-38.206814
2083.984375	-38.247906
2084.960938	-38.367306
2085.937500	-39.846794
2086.914062	-40.367573
2087.890625	-39.890945
2088.867188	-40.605392
2089.843750	-40.696411
2090.820312	-40.438877
2091.796875	-41.206306
2092.773438	-41.018570
2093.750000	-40.643566
2094.726562	-41.152554
2095.703125	-41.606289
2096.679688	-40.771942
2097.656250	-41.652229
2098.632812	-40.318371
2099.609375	-40.254211
2100.585938	-40.726936
2101.562500	-40.243885
2102.539062	-39.835281
2103.515625	-39.183418
2104.492188	-39.471542
2105.468750	-40.016434
2106.445312	-40.839703
2107.421875	-38.787159
2108.398438	-42.414429
2109.375000	-40.746731
2110.351562	-38.457115
2111.328125	-39.532639
2112.304688	-39.895779
2113.281250	-40.780067
2114.257812	-40.968246
2115.234375	-41.729080
2116.210938	-39.953171
2117.187500	-41.532852
2118.164062	-41.599072
2119.140625	-39.839806
2120.117188	-40.940517
2121.093750	-40.803253
2122.070312	-40.806950
2123.046875	-41.000778
2124.023438	-39.640438
2125.000000	-41.276054
2125.976562	-40.214718
2126.953125	-40.613224
2127.929688	-40.104919
2128.906250	-39.429497
2129.882812	-40.475452
2130.859375	-41.236794
2131.835938	-40.631111
2132.812500	-41.467239
2133.789062	-41.633350
2134.765625	-41.172573
2135.742188	-41.321827
2136.718750	-40.479988
2137.695312	-42.131805
2138.671875	-42.807224
2139.648438	-41.430038
2140.625000	-41.070099
2141.601562	-42.394276
2142.578125	-42.146381
2143.554688	-42.233807
2144.531250	-43.667187
2145.507812	-43.572906
2146.484375	-43.667946
2147.460938	-42.148724
2148.437500	-41.919315
2149.414062	-42.055485
2150.390625	-42.349564
2151.367188	-44.511303
2152.343750	-43.800835
2153.320312	-43.939106
2154.296875	-43.928696
2155.273438	-43.891247
2156.250000	-45.078320
2157.226562	-43.244137
2158.203125	-43.700981
2159.179688	-42.658146
2160.156250	-43.367493
2161.132812	-44.426888
2162.109375	-45.595619
2163.085938	-45.441097
2164.062500	-44.809071
2165.039062	-45.225792
2166.015625	-44.477737
2166.992188	-43.665848
2167.968750	-43.662197
2168.945312	-43.815685
2169.921875	-45.388809
2170.898438	-44.032711
2171.875000	-44.869556
2172.851562	-44.848164
2173.828125	-43.543072
2174.804688	-44.271885
2175.781250	-44.904224
2176.757812	-44.263683
2177.734375	-44.256069
2178.710938	-44.608875
2179.687500	-46.154648
2180.664062	-45.822273
2181.640625	-45.418026
2182.617188	-46.199036
2183.593750	-44.736973
2184.570312	-46.415611
2185.546875	-45.041653
2186.523438	-47.076870
2187.500000	-44.660183
2188.476562	-46.171562
2189.453125	-45.296566
2190.429688	-45.981766
2191.406250	-45.399342
2192.382812	-47.279949
2193.359375	-45.690941
2194.335938	-47.247654
2195.312500	-47.379498
2196.289062	-44.547619
2197.265625	-47.936977
2198.242188	-46.952003
2199.218750	-45.562820
2200.195312	-46.883514
2201.171875	-45.738358
2202.148438	-47.303410
2203.125000	-45.407089
2204.101562	-46.432278
2205.078125	-46.458473
2206.054688	-47.955429
2207.031250	-47.853210
2208.007812	-47.744934
2208.984375	-46.182690
2209.960938	-47.715801
2210.937500	-46.194855
2211.914062	-45.758408
2212.890625	-46.989521
2213.867188	-48.062149
2214.843750	-47.501362
2215.820312	-46.791889
2216.796875	-47.065544
2217.773438	-46.475391
2218.750000	-48.657375
2219.726562	-48.743217
2220.703125	-46.954533
2221.679688	-45.480358
2222.656250	-47.196068
2223.632812	-46.667873
2224.609375	-48.161640
2225.585938	-46.651505
2226.562500	-47.354191
2227.539062	-49.237118
2228.515625	-48.916389
2229.492188	-47.122166
2230.468750	-48.209091
2231.445312	-49.462627
2232.421875	-48.248039
2233.398438	-48.072601
2234.375000	-46.334637
2235.351562	-47.441750
2236.328125	-49.412292
2237.304688	-49.014729
2238.281250	-47.510006
2239.257812	-47.644138
2240.234375	-48.522343
2241.210938	-49.772583
2242.187500	-48.233959
2243.164062	-48.438114
2244.140625	-48.912651
2245.117188	-48.288818
2246.093750	-48.454365
2247.070312	-46.969868
2248.046875	-48.827080
2249.023438	-49.734005
2250.000000	-49.723171
2250.976562	-50.062855
2251.953125	-49.229271
2252.929688	-49.223473
2253.906250	-51.241463
2254.882812	-49.696930
2255.859375	-48.069401
2256.835938	-48.963108
2257.812500	-49.143394
2258.789062	-50.087906
2259.765625	-49.433113
2260.742188	-47.481754
2261.718750	-50.224674
2262.695312	-49.443653
2263.671875	-49.510475
2264.648438	-50.550304
2265.625000	-49.610256
2266.601562	-49.422546
2267.578125	-49.737408
2268.554688	-48.499249
2269.531250	-49.318844
2270.507812	-51.944988
2271.484375	-51.601238
2272.460938	-50.390388
2273.437500	-50.047951
2274.414062	-50.538517
2275.390625	-50.134464
2276.367188	-49.898060
2277.343750	-49.581604
2278.320312	-49.635548
2279.296875	-51.034832
2280.273438	-50.740959
2281.250000	-49.772266
2282.226562	-49.686234
2283.203125	-50.821388
2284.179688	-49.952789
2285.156250	-50.268166
2286.132812	-49.190468
2287.109375	-49.894421
2288.085938	-49.736313
2289.062500	-50.739384
2290.039062	-49.011395
2291.015625	-49.771626
2291.992188	-51.582428
2292.968750	-52.201790
2293.945312	-50.257530
2294.921875	-51.103695
2295.898438	-50.695831
2296.875000	-49.586147
2297.851562	-52.272572
2298.828125	-50.153156
2299.804688	-49.857655
2300.781250	-50.978882
2301.757812	-52.494843
2302.734375	-52.363922
2303.710938	-53.194061
2304.687500	-52.096176
2305.664062	-51.577168
2306.640625	-50.950508
2307.617188	-50.983814
2308.593750	-51.977837
2309.570312	-50.447063
2310.546875	-51.586567
2311.523438	-53.039288
2312.500000	-51.810764
2313.476562	-52.196457
2314.453125	-50.780914
2315.429688	-52.415436
2316.406250	-52.451748
2317.382812	-52.990261
2318.359375	-52.393452
2319.335938	-50.230106
2320.312500	-51.911411
2321.289062	-51.676220
2322.265625	-52.297192
2323.242188	-52.558407
2324.218750	-54.891029
2325.195312	-52.831337
2326.171875	-52.725891
2327.148438	-52.087788
2328.125000	-50.739857
2329.101562	-51.773415
2330.078125	-50.452057
2331.054688	-50.494213
2332.031250	-52.706985
2333.007812	-50.895020
2333.984375	-51.645260
2334.960938	-52.101795
2335.937500	-52.390446
2336.914062	-54.336819
2337.890625	-53.132835
2338.867188	-50.846889
2339.843750	-51.049820
2340.820312	-50.165573
2341.796875	-50.710316
2342.773438	-50.740021
2343.750000	-50.543823
2344.726562	-50.443874
2345.703125	-50.872177
2346.679688	-51.487431
2347.656250	-50.375771
2348.632812	-50.816212
2349.609375	-51.250237
2350.585938	-51.955475
2351.562500	-52.487240
2352.539062	-50.605488
2353.515625	-50.230705
2354.492188	-49.813538
2355.468750	-51.627449
2356.445312	-52.780373
2357.421875	-52.037384
2358.398438	-51.457954
2359.375000	-51.008533
2360.351562	-49.756981
2361.328125	-50.618748
2362.304688	-49.994125
2363.281250	-50.665306
2364.257812	-51.310417
2365.234375	-51.281395
2366.210938	-51.144371
2367.187500	-50.488129
2368.164062	-49.792240
2369.140625	-49.393539
2370.117188	-50.946846
2371.093750	-51.293243
2372.070312	-52.982311
2373.046875	-52.766396
2374.023438	-52.085102
2375.000000	-51.204056
2375.976562	-50.978172
2376.953125	-49.274487
2377.929688	-48.777401
2378.906250	-49.743389
2379.882812	-48.626408
2380.859375	-47.770397
2381.835938	-48.526733
2382.812500	-50.122608
2383.789062	-50.806969
2384.765625	-51.342068
2385.742188	-50.562904
2386.718750	-49.283337
2387.695312	-50.377491
2388.671875	-50.981354
2389.648438	-50.947136
2390.625000	-51.029331
2391.601562	-49.543640
2392.578125	-49.891720
2393.554688	-47.527813
2394.531250	-47.596684
2395.507812	-49.581676
2396.484375	-47.694828
2397.460938	-48.334393
2398.437500	-49.025383
2399.414062	-47.483639
2400.390625	-46.501148
2401.367188	-48.017464
2402.343750	-47.095955
2403.320312	-45.862667
2404.296875	-47.661198
2405.273438	-47.637119
2406.250000	-47.671249
2407.226562	-47.508984
2408.203125	-47.145020
2409.179688	-48.370403
2410.156250	-49.563694
2411.132812	-46.521370
2412.109375	-46.623608
2413.085938	-46.582737
2414.062500	-47.151295
2415.039062	-47.491871
2416.015625	-46.131260
2416.992188	-45.857071
2417.968750	-45.995003
2418.945312	-45.256550
2419.921875	-43.322540
2420.898438	-45.620640
2421.875000	-43.815571
2422.851562	-44.367599
2423.828125	-44.497883
2424.804688	-41.539391
2425.781250	-43.227997
2426.757812	-43.858070
2427.734375	-45.078564
2428.710938	-45.438454
2429.687500	-44.718220
2430.664062	-44.792637
2431.640625	-43.108006
2432.617188	-44.447433
2433.593750	-43.603500
2434.570312	-42.475235
2435.546875	-43.901733
2436.523438	-43.826862
2437.500000	-43.592888
2438.476562	-42.841019
2439.453125	-41.317261
2440.429688	-42.773102
2441.406250	-42.300941
2442.382812	-43.114716
2443.359375	-42.895332
2444.335938	-43.608364
2445.312500	-41.358658
2446.289062	-41.808281
2447.265625	-42.377094
2448.242188	-42.127171
2449.218750	-40.454144
2450.195312	-41.707394
2451.171875	-40.375317
2452.148438	-41.932285
2453.125000	-39.005676
2454.101562	-39.480221
2455.078125	-39.918453
2456.054688	-40.130123
2457.031250	-41.149055
2458.007812	-39.797535
2458.984375	-40.037403
2459.960938	-39.908337
2460.937500	-41.829193
2461.914062	-40.883110
2462.890625	-41.304840
2463.867188	-41.737301
2464.843750	-39.104710
2465.820312	-38.169838
2466.796875	-37.542736
2467.773438	-37.218422
2468.750000	-38.407955
2469.726562	-38.597019
2470.703125	-39.525616
2471.679688	-37.870174
2472.656250	-38.265202
2473.632812	-37.716022
2474.609375	-38.427784
2475.585938	-37.521152
2476.562500	-39.231552
2477.539062	-35.425301
2478.515625	-35.662300
2479.492188	-35.359043
2480.468750	-34.930466
2481.445312	-36.339546
2482.421875	-37.276157
2483.398438	-37.263977
2484.375000	-36.655952
2485.351562	-39.503002
2486.328125	-35.670105
2487.304688	-36.387196
2488.281250	-37.089920
2489.257812	-36.463837
2490.234375	-34.311348
2491.210938	-34.439728
2492.187500	-34.306667
2493.164062	-35.328724
2494.140625	-35.810833
2495.117188	-35.124870
2496.093750	-35.563484
2497.070312	-33.921211
2498.046875	-32.950825
2499.023438	-33.624645
2500.000000	-33.483536
2500.976562	-32.789162
2501.953125	-34.544964
2502.929688	-35.406506
2503.906250	-31.646408
2504.882812	-33.927505
2505.859375	-32.564247
2506.835938	-33.206680
2507.812500	-32.708130
2508.789062	-32.333530
2509.765625	-34.326630
2510.742188	-32.774048
2511.718750	-34.237461
2512.695312	-34.351807
2513.671875	-33.195766
2514.648438	-34.560223
2515.625000	-31.881691
2516.601562	-31.549423
2517.578125	-31.521984
2518.554688	-31.985817
2519.531250	-31.533979
2520.507812	-32.993053
2521.484375	-32.243046
2522.460938	-31.925804
2523.437500	-32.121132
2524.414062	-31.606127
2525.390625	-31.868910
2526.367188	-31.319160
2527.343750	-31.075230
2528.320312	-32.089672
2529.296875	-31.734724
2530.273438	-30.465410
2531.250000	-30.158104
2532.226562	-31.791632
2533.203125	-30.853603
2534.179688	-30.690706
2535.156250	-30.027922
2536.132812	-30.132977
2537.109375	-29.897976
2538.085938	-31.724493
2539.062500	-32.004284
2540.039062	-30.606001
2541.015625	-28.938059
2541.992188	-30.569342
2542.968750	-28.888836
2543.945312	-30.306345
2544.921875	-30.423616
2545.898438	-28.338160
2546.875000	-29.727568
2547.851562	-30.087191
2548.828125	-29.955173
2549.804688	-30.240576
2550.781250	-30.091101
2551.757812	-30.405115
2552.734375	-29.265764
2553.710938	-31.480721
2554.687500	-28.139380
2555.664062	-27.348753
2556.640625	-30.171778
2557.617188	-31.489290
2558.593750	-32.662327
2559.570312	-29.930628
2560.546875	-30.338921
2561.523438	-31.166065
2562.500000	-30.864994
2563.476562	-30.663166
2564.453125	-29.104664
2565.429688	-31.909050
2566.406250	-30.601643
2567.382812	-28.666624
2568.359375	-29.021212
2569.335938	-30.290922
2570.312500	-29.565674
2571.289062	-29.255627
2572.265625	-29.349937
2573.242188	-29.199461
2574.218750	-29.780935
2575.195312	-30.464483
2576.171875	-30.438715
2577.148438	-31.224878
2578.125000	-30.060312
2579.101562	-31.308783
2580.078125	-29.692963
2581.054688	-30.267118
2582.031250	-31.308588
2583.007812	-30.200804
2583.984375	-32.075630
2584.960938	-32.119987
2585.937500	-30.313976
2586.914062	-30.199389
2587.890625	-30.908579
2588.867188	-28.694849
2589.843750	-28.005375
2590.820312	-29.178530
2591.796875	-28.297510
2592.773438	-30.184578
2593.750000	-29.289959
2594.726562	-30.090822
2595.703125	-29.913012
2596.679688	-31.023170
2597.656250	-30.548635
2598.632812	-29.667719
2599.609375	-29.582535
2600.585938	-29.983767
2601.562500	-29.500536
2602.539062	-29.907925
2603.515625	-30.329250
2604.492188	-30.949940
2605.468750	-29.917889
2606.445312	-29.957817
2607.421875	-29.989834
2608.398438	-28.919271
2609.375000	-29.305639
2610.351562	-31.503433
2611.328125	-28.579294
2612.304688	-28.019016
2613.281250	-28.895046
2614.257812	-29.741684
2615.234375	-30.025661
2616.210938	-29.154898
2617.187500	-29.758289
2618.164062	-29.237766
2619.140625	-30.945295
2620.117188	-30.772486
2621.093750	-31.179842
2622.070312	-30.625164
2623.046875	-30.013714
2624.023438	-29.319212
2625.000000	-30.383947
2625.976562	-29.405670
2626.953125	-29.347961
2627.929688	-28.443727
2628.906250	-28.411547
2629.882812	-29.119005
2630.859375	-27.245157
2631.835938	-28.432590
2632.812500	-27.705173
2633.789062	-28.538910
2634.765625	-27.152155
2635.742188	-25.350410
2636.718750	-24.949678
2637.695312	-26.943439
2638.671875	-27.775051
2639.648438	-29.583803
2640.625000	-29.586317
2641.601562	-26.804022
2642.578125	-26.846199
2643.554688	-27.251709
2644.531250	-29.608332
2645.507812	-29.623087
2646.484375	-28.851450
2647.460938	-31.184128
2648.437500	-29.921305
2649.414062	-29.489367
2650.390625	-30.130486
2651.367188	-30.007753
2652.343750	-28.365026
2653.320312	-29.189445
2654.296875	-28.229572
2655.273438	-29.569304
2656.250000	-27.909607
2657.226562	-28.180521
2658.203125	-27.799671
2659.179688	-27.871582
2660.156250	-29.051935
2661.132812	-28.685915
2662.109375	-26.995394
2663.085938	-28.892723
2664.062500	-29.820688
2665.039062	-29.404192
2666.015625	-26.819263
2666.992188	-28.576204
2667.968750	-30.345402
2668.945312	-29.666107
2669.921875	-29.666073
2670.898438	-31.313807
2671.875000	-31.054087
2672.851562	-30.228838
2673.828125	-31.365610
2674.804688	-30.776871
2675.781250	-28.174925
2676.757812	-28.699505
2677.734375	-29.359741
2678.710938	-29.149075
2679.687500	-31.847075
2680.664062	-30.763613
2681.640625	-30.705526
2682.617188	-31.529362
2683.593750	-31.786039
2684.570312	-30.855736
2685.546875	-31.331881
2686.523438	-30.454029
2687.500000	-32.260872
2688.476562	-29.417545
2689.453125	-30.772020
2690.429688	-33.132805
2691.406250	-32.879768
2692.382812	-33.213219
2693.359375	-32.741352
2694.335938	-32.175468
2695.312500	-32.482471
2696.289062	-32.564766
2697.265625	-31.325214
2698.242188	-31.614256
2699.218750	-34.373276
2700.195312	-32.257568
2701.171875	-33.415489
2702.148438	-32.818161
2703.125000	-33.402184
2704.101562	-31.572182
2705.078125	-33.436462
2706.054688	-33.939747
2707.031250	-34.113926
2708.007812	-33.529560
2708.984375	-32.199799
2709.960938	-33.517544
2710.937500	-33.363201
2711.914062	-35.345238
2712.890625	-34.993420
2713.867188	-36.109413
2714.843750	-34.301762
2715.820312	-35.716511
2716.796875	-33.378880
2717.773438	-33.403812
2718.750000	-34.245537
2719.726562	-35.458847
2720.703125	-35.234867
2721.679688	-36.722309
2722.656250	-35.792416
2723.632812	-36.569824
2724.609375	-37.567253
2725.585938	-35.446529
2726.562500	-36.500290
2727.539062	-35.629993
2728.515625	-34.349697
2729.492188	-35.869694
2730.468750	-35.692593
2731.445312	-36.524605
2732.421875	-39.332474
2733.398438	-39.405170
2734.375000	-37.569031
2735.351562	-37.557041
2736.328125	-38.470108
2737.304688	-37.870136
2738.281250	-38.907982
2739.257812	-35.340302
2740.234375	-36.981976
2741.210938	-36.442909
2742.187500	-36.274132
2743.164062	-38.716122
2744.140625	-38.983166
2745.117188	-40.077381
2746.093750	-41.907303
2747.070312	-39.560436
2748.046875	-40.649426
2749.023438	-41.155369
2750.000000	-37.151241
2750.976562	-38.951576
2751.953125	-36.541695
2752.929688	-36.725311
2753.906250	-38.337826
2754.882812	-39.401848
2755.859375	-41.033840
2756.835938	-42.911705
2757.812500	-42.034142
2758.789062	-42.566410
2759.765625	-43.471500
2760.742188	-41.403255
2761.718750	-41.330490
2762.695312	-40.900772
2763.671875	-37.875183
2764.648438	-38.533962
2765.625000	-39.417480
2766.601562	-41.182774
2767.578125	-43.289692
2768.554688	-44.365608
2769.531250	-43.912159
2770.507812	-45.315590
2771.484375	-43.873390
2772.460938	-44.889706
2773.437500	-42.443745
2774.414062	-41.676891
2775.390625	-40.798882
2776.367188	-40.382896
2777.343750	-42.070694
2778.320312	-43.095600
2779.296875	-44.616261
2780.273438	-44.456573
2781.250000	-46.514549
2782.226562	-47.085632
2783.203125	-47.558460
2784.179688	-47.564575
2785.156250	-45.667740
2786.132812	-43.506027
2787.109375	-43.717937
2788.085938	-43.714569
2789.062500	-44.335918
2790.039062	-45.325333
2791.015625	-48.744461
2791.992188	-50.387318
2792.968750	-49.454437
2793.945312	-49.154552
2794.921875	-47.921246
2795.898438	-47.480408
2796.875000	-46.185966
2797.851562	-46.019516
2798.828125	-46.552082
2799.804688	-45.361523
2800.781250	-47.792934
2801.757812	-49.698288
2802.734375	-49.140133
2803.710938	-47.743484
2804.687500	-48.486320
2805.664062	-48.173527
2806.640625	-48.622902
2807.617188	-48.823002
2808.593750	-48.063839
2809.570312	-46.667301
2810.546875	-47.368687
2811.523438	-49.069878
2812.500000	-49.239700
2813.476562	-49.024284
2814.453125	-48.607243
2815.429688	-49.314480
2816.406250	-49.737854
2817.382812	-49.446423
2818.359375	-49.692680
2819.335938	-49.181992
2820.312500	-48.074074
2821.289062	-47.927288
2822.265625	-50.379230
2823.242188	-49.112518
2824.218750	-48.751842
2825.195312	-48.824501
2826.171875	-47.975906
2827.148438	-50.325775
2828.125000	-49.539310
2829.101562	-48.676945
2830.078125	-50.553108
2831.054688	-48.643452
2832.031250	-49.156200
2833.007812	-49.255245
2833.984375	-50.793976
2834.960938	-50.194695
2835.937500	-49.616859
2836.914062	-50.877514
2837.890625	-52.451523
2838.867188	-51.624260
2839.843750	-50.772930
2840.820312	-51.433395
2841.796875	-51.967010
2842.773438	-48.919834
2843.750000	-49.957043
2844.726562	-49.158539
2845.703125	-49.993320
2846.679688	-49.995983
2847.656250	-49.663433
2848.632812	-50.858177
2849.609375	-48.894699
2850.585938	-49.875881
2851.562500	-49.339115
2852.539062	-50.672211
2853.515625	-50.841148
2854.492188	-49.910614
2855.468750	-49.448994
2856.445312	-49.398804
2857.421875	-50.679035
2858.398438	-50.567898
2859.375000	-50.297100
2860.351562	-50.875553
2861.328125	-49.667866
2862.304688	-50.370773
2863.281250	-49.681114
2864.257812	-50.129089
2865.234375	-50.488892
2866.210938	-49.297546
2867.187500	-49.806915
2868.164062	-50.201359
2869.140625	-48.836109
2870.117188	-48.911755
2871.093750	-50.696152
2872.070312	-49.184128
2873.046875	-49.607307
2874.023438	-50.766930
2875.000000	-50.732803
2875.976562	-50.399624
2876.953125	-49.575016
2877.929688	-47.684978
2878.906250	-48.529247
2879.882812	-47.345535
2880.859375	-49.008125
2881.835938	-49.132202
2882.812500	-50.567017
2883.789062	-50.465126
2884.765625	-49.746479
2885.742188	-49.273224
2886.718750	-49.926277
2887.695312	-49.175705
2888.671875	-48.980343
2889.648438	-48.888348
2890.625000	-47.032784
2891.601562	-47.985554
2892.578125	-47.231487
2893.554688	-49.592648
2894.531250	-49.855328
2895.507812	-50.449116
2896.484375	-49.933792
2897.460938	-50.510998
2898.437500	-50.315712
2899.414062	-50.248058
2900.390625	-49.988598
2901.367188	-49.424374
2902.343750	-48.821335
2903.320312	-49.608368
2904.296875	-49.792374
2905.273438	-47.916180
2906.250000	-46.127483
2907.226562	-46.826725
2908.203125	-45.945557
2909.179688	-45.788189
2910.156250	-46.558926
2911.132812	-45.105328
2912.109375	-45.303532
2913.085938	-44.554428
2914.062500	-45.282448
2915.039062	-46.196514
2916.015625	-48.487514
2916.992188	-49.055233
2917.968750	-49.483982
2918.945312	-47.193192
2919.921875	-47.521679
2920.898438	-48.683685
2921.875000	-49.784561
2922.851562	-47.987988
2923.828125	-50.266777
2924.804688	-50.803524
2925.781250	-49.992409
2926.757812	-48.001804
2927.734375	-47.082222
2928.710938	-45.302559
2929.687500	-46.630219
2930.664062	-43.857224
2931.640625	-45.095200
2932.617188	-44.926739
2933.593750	-43.968605
2934.570312	-44.449062
2935.546875	-42.840042
2936.523438	-43.166290
2937.500000	-42.121010
2938.476562	-43.623665
2939.453125	-45.254139
2940.429688	-44.831589
2941.406250	-46.203949
2942.382812	-44.660728
2943.359375	-45.704136
2944.335938	-44.605328
2945.312500	-44.339977
2946.289062	-44.769093
2947.265625	-43.323166
2948.242188	-46.497932
2949.218750	-45.858433
2950.195312	-48.859165
2951.171875	-46.349033
2952.148438	-45.377823
2953.125000	-46.356899
2954.101562	-44.516445
2955.078125	-44.091183
2956.054688	-44.413380
2957.031250	-42.269867
2958.007812	-42.567493
2958.984375	-43.100700
2959.960938	-40.919334
2960.937500	-42.325584
2961.914062	-42.824585
2962.890625	-40.813339
2963.867188	-41.514221
2964.843750	-41.230614
2965.820312	-40.846550
2966.796875	-43.392231
2967.773438	-42.704762
2968.750000	-42.366325
2969.726562	-42.145824
2970.703125	-43.470135
2971.679688	-41.528645
2972.656250	-43.857449
2973.632812	-42.958340
2974.609375	-42.345089
2975.585938	-43.673355
2976.562500	-42.419277
2977.539062	-41.354385
2978.515625	-40.921097
2979.492188	-38.331589
2980.468750	-37.868736
2981.445312	-40.783699
2982.421875	-38.857918
2983.398438	-38.348309
2984.375000	-40.095692
2985.351562	-39.405762
2986.328125	-39.316799
2987.304688	-41.224865
2988.281250	-41.632568
2989.257812	-39.025497
2990.234375	-38.423592
2991.210938	-39.102768
2992.187500	-37.882244
2993.164062	-37.574322
2994.140625	-38.518776
2995.117188	-38.099533
2996.093750	-38.954296
2997.070312	-37.640625
2998.046875	-36.815578
2999.023438	-37.288776
3000.000000	-38.524033
3000.976562	-36.712173
3001.953125	-36.627682
3002.929688	-36.725441
3003.906250	-36.323467
3004.882812	-38.063362
3005.859375	-37.193150
3006.835938	-36.276680
3007.812500	-36.424248
3008.789062	-37.507645
3009.765625	-35.921474
3010.742188	-36.086136
3011.718750	-37.162933
3012.695312	-36.956123
3013.671875	-36.743019
3014.648438	-35.687473
3015.625000	-34.685783
3016.601562	-34.790421
3017.578125	-34.797085
3018.554688	-35.890274
3019.531250	-34.568150
3020.507812	-36.317505
3021.484375	-36.923801
3022.460938	-35.887726
3023.437500	-35.575409
3024.414062	-34.555199
3025.390625	-35.259850
3026.367188	-34.452309
3027.343750	-33.412132
3028.320312	-33.541622
3029.296875	-34.771626
3030.273438	-33.506214
3031.250000	-34.561443
3032.226562	-36.160938
3033.203125	-35.566345
3034.179688	-36.163963
3035.156250	-35.156963
3036.132812	-33.530682
3037.109375	-31.662416
3038.085938	-32.724495
3039.062500	-35.026749
3040.039062	-35.548271
3041.015625	-34.938957
3041.992188	-35.288277
3042.968750	-33.171600
3043.945312	-33.329666
3044.921875	-34.187656
3045.898438	-33.132896
3046.875000	-32.417374
3047.851562	-33.544018
3048.828125	-33.865765
3049.804688	-35.395592
3050.781250	-33.603760
3051.757812	-32.378559
3052.734375	-33.583210
3053.710938	-32.804298
3054.687500	-33.830647
3055.664062	-33.359913
3056.640625	-30.943186
3057.617188	-30.805304
3058.593750	-32.238499
3059.570312	-31.960989
3060.546875	-31.738255
3061.523438	-31.820114
3062.500000	-32.840084
3063.476562	-32.360806
3064.453125	-31.091640
3065.429688	-29.785620
3066.406250	-31.502043
3067.382812	-31.273365
3068.359375	-32.039516
3069.335938	-30.493519
3070.312500	-32.540951
3071.289062	-31.884905
3072.265625	-31.587307
3073.242188	-32.698708
3074.218750	-33.955215
3075.195312	-31.965973
3076.171875	-30.495367
3077.148438	-29.599174
3078.125000	-27.597334
3079.101562	-27.617504
3080.078125	-29.193583
3081.054688	-30.776651
3082.031250	-29.243320
3083.007812	-28.198404
3083.984375	-28.280886
3084.960938	-28.345867
3085.937500	-29.245222
3086.914062	-28.730186
3087.890625	-27.239887
3088.867188	-26.087652
3089.843750	-25.455837
3090.820312	-25.009447
3091.796875	-27.645756
3092.773438	-27.532654
3093.750000	-26.780979
3094.726562	-30.475033
3095.703125	-28.251703
3096.679688	-28.411606
3097.656250	-28.484547
3098.632812	-28.322819
3099.609375	-28.298868
3100.585938	-27.137775
3101.562500	-26.344143
3102.539062	-27.024736
3103.515625	-27.148911
3104.492188	-27.403238
3105.468750	-28.325760
3106.445312	-27.291510
3107.421875	-27.385902
3108.398438	-28.291208
3109.375000	-26.996923
3110.351562	-26.981615
3111.328125	-26.060410
3112.304688	-26.523943
3113.281250	-28.089279
3114.257812	-28.581329
3115.234375	-28.181650
3116.210938	-26.979965
3117.187500	-27.558105
3118.164062	-28.226652
3119.140625	-28.470774
3120.117188	-27.853601
3121.093750	-27.501833
3122.070312	-28.379908
3123.046875	-28.504904
3124.023438	-28.040867
3125.000000	-27.805592
3125.976562	-27.639250
3126.953125	-28.184202
3127.929688	-27.031857
3128.906250	-25.539253
3129.882812	-25.878054
3130.859375	-26.612791
3131.835938	-27.183844
3132.812500	-26.648235
3133.789062	-27.814016
3134.765625	-27.870007
3135.742188	-28.622910
3136.718750	-29.622461
3137.695312	-28.774145
3138.671875	-29.760788
3139.648438	-29.329426
3140.625000	-28.361185
3141.601562	-27.675165
3142.578125	-28.353247
3143.554688	-28.490446
3144.531250	-27.998030
3145.507812	-27.122772
3146.484375	-27.971426
3147.460938	-29.122185
3148.437500	-29.114769
3149.414062	-27.695759
3150.390625	-28.461281
3151.367188	-28.671144
3152.343750	-29.658424
3153.320312	-29.514067
3154.296875	-27.787575
3155.273438	-29.083565
3156.250000	-28.366674
3157.226562	-28.850517
3158.203125	-30.272717
3159.179688	-30.874966
3160.156250	-29.911003
3161.132812	-29.966110
3162.109375	-29.833422
3163.085938	-30.627087
3164.062500	-29.158491
3165.039062	-30.265947
3166.015625	-30.655848
3166.992188	-30.397678
3167.968750	-28.971109
3168.945312	-29.179741
3169.921875	-30.499475
3170.898438	-30.196793
3171.875000	-29.459602
3172.851562	-28.932243
3173.828125	-29.035229
3174.804688	-30.266605
3175.781250	-31.321377
3176.757812	-29.313623
3177.734375	-29.943594
3178.710938	-29.739437
3179.687500	-31.977215
3180.664062	-29.961477
3181.640625	-29.565304
3182.617188	-31.344149
3183.593750	-30.385004
3184.570312	-29.982969
3185.546875	-30.877882
3186.523438	-29.514917
3187.500000	-30.018139
3188.476562	-31.175411
3189.453125	-31.105927
3190.429688	-30.379560
3191.406250	-30.211468
3192.382812	-31.065048
3193.359375	-29.853174
3194.335938	-30.208414
3195.312500	-30.193789
3196.289062	-31.653465
3197.265625	-29.377895
3198.242188	-30.341391
3199.218750	-29.198675
3200.195312	-30.133236
3201.171875	-29.128538
3202.148438	-28.574308
3203.125000	-29.459602
3204.101562	-31.291805
3205.078125	-30.732584
3206.054688	-31.228298
3207.031250	-32.855026
3208.007812	-34.576023
3208.984375	-32.608120
3209.960938	-32.278423
3210.937500	-32.075069
3211.914062	-33.964756
3212.890625	-30.459522
3213.867188	-34.336956
3214.843750	-34.706825
3215.820312	-33.354927
3216.796875	-33.544327
3217.773438	-33.949276
3218.750000	-33.932652
3219.726562	-35.560612
3220.703125	-33.990021
3221.679688	-33.732872
3222.656250	-31.695547
3223.632812	-32.692875
3224.609375	-32.606102
3225.585938	-33.724918
3226.562500	-32.514568
3227.539062	-34.670887
3228.515625	-34.983376
3229.492188	-34.787956
3230.468750	-34.318413
3231.445312	-35.399185
3232.421875	-34.979965
3233.398438	-37.612843
3234.375000	-36.790981
3235.351562	-34.147976
3236.328125	-34.355721
3237.304688	-33.823971
3238.281250	-33.215038
3239.257812	-33.544029
3240.234375	-34.269180
3241.210938	-34.351021
3242.187500	-36.449844
3243.164062	-35.479183
3244.140625	-35.974232
3245.117188	-36.183697
3246.093750	-35.977280
3247.070312	-37.356606
3248.046875	-35.522762
3249.023438	-35.495487
3250.000000	-34.907391
3250.976562	-35.131744
3251.953125	-35.227547
3252.929688	-35.358486
3253.906250	-36.374878
3254.882812	-35.871834
3255.859375	-36.450581
3256.835938	-36.025307
3257.812500	-36.295464
3258.789062	-36.440414
3259.765625	-37.558750
3260.742188	-37.747559
3261.718750	-37.184723
3262.695312	-38.517799
3263.671875	-35.986282
3264.648438	-36.748688
3265.625000	-36.834904
3266.601562	-36.403278
3267.578125	-38.212513
3268.554688	-37.743477
3269.531250	-38.528118
3270.507812	-37.614830
3271.484375	-37.867405
3272.460938	-38.142883
3273.437500	-38.551441
3274.414062	-38.132332
3275.390625	-39.165405
3276.367188	-38.408539
3277.343750	-38.150406
3278.320312	-38.847610
3279.296875	-38.364830
3280.273438	-38.425316
3281.250000	-38.874958
3282.226562	-40.002819
3283.203125	-39.617447
3284.179688	-40.024441
3285.156250	-40.488258
3286.132812	-40.719727
3287.109375	-42.547955
3288.085938	-41.575863
3289.062500	-41.487625
3290.039062	-40.671932
3291.015625	-40.557903
3291.992188	-40.717827
3292.968750	-40.740765
3293.945312	-41.271130
3294.921875	-41.171768
3295.898438	-41.902931
3296.875000	-43.283112
3297.851562	-43.348434
3298.828125	-43.522499
3299.804688	-43.827129
3300.781250	-44.333088
3301.757812	-45.973663
3302.734375	-46.362556
3303.710938	-44.905605
3304.687500	-44.241596
3305.664062	-43.639885
3306.640625	-44.753868
3307.617188	-44.251797
3308.593750	-44.009857
3309.570312	-45.081074
3310.546875	-45.502316
3311.523438	-45.837708
3312.500000	-46.743816
3313.476562	-47.812531
3314.453125	-47.392990
3315.429688	-47.399799
3316.406250	-48.756729
3317.382812	-47.986233
3318.359375	-47.055229
3319.335938	-47.207458
3320.312500	-48.673702
3321.289062	-48.837639
3322.265625	-47.619011
3323.242188	-48.756310
3324.218750	-47.315483
3325.195312	-49.201828
3326.171875	-48.906704
3327.148438	-49.219185
3328.125000	-50.742676
3329.101562	-50.216095
3330.078125	-50.240475
3331.054688	-50.873405
3332.031250	-49.415863
3333.007812	-49.602196
3333.984375	-51.349682
3334.960938	-49.662579
3335.937500	-50.199356
3336.914062	-50.603111
3337.890625	-49.752907
3338.867188	-51.208088
3339.843750	-50.707779
3340.820312	-50.892410
3341.796875	-51.254585
3342.773438	-50.251183
3343.750000	-50.706284
3344.726562	-52.268757
3345.703125	-51.654308
3346.679688	-51.379562
3347.656250	-51.533047
3348.632812	-51.118374
3349.609375	-53.023552
3350.585938	-51.280552
3351.562500	-51.220798
3352.539062	-52.548382
3353.515625	-54.155281
3354.492188	-51.309422
3355.468750	-51.328110
3356.445312	-51.935005
3357.421875	-52.474514
3358.398438	-54.023197
3359.375000	-52.544273
3360.351562	-52.210670
3361.328125	-50.495361
3362.304688	-49.935394
3363.281250	-52.115795
3364.257812	-52.218277
3365.234375	-51.220242
3366.210938	-53.248550
3367.187500	-50.650932
3368.164062	-51.018040
3369.140625	-50.272709
3370.117188	-51.294319
3371.093750	-51.697247
3372.070312	-51.668037
3373.046875	-52.801075
3374.023438	-52.757420
3375.000000	-51.099598
3375.976562	-50.207371
3376.953125	-50.508938
3377.929688	-51.393982
3378.906250	-51.379494
3379.882812	-51.652821
3380.859375	-52.129742
3381.835938	-51.800251
3382.812500	-53.157852
3383.789062	-52.150444
3384.765625	-49.528362
3385.742188	-49.936153
3386.718750	-50.461845
3387.695312	-51.008522
3388.671875	-51.657692
3389.648438	-50.981110
3390.625000	-50.701900
3391.601562	-51.774624
3392.578125	-50.830849
3393.554688	-50.738476
3394.531250	-51.337967
3395.507812	-50.400978
3396.484375	-51.746902
3397.460938	-52.024757
3398.437500	-50.244148
3399.414062	-51.044243
3400.390625	-51.014107
3401.367188	-50.413143
3402.343750	-51.282730
3403.320312	-51.592754
3404.296875	-50.977901
3405.273438	-50.945801
3406.250000	-50.110035
3407.226562	-50.023163
3408.203125	-51.299950
3409.179688	-52.196514
3410.156250	-52.746822
3411.132812	-51.796337
3412.109375	-51.070202
3413.085938	-51.852974
3414.062500	-50.384903
3415.039062	-50.685246
3416.015625	-50.519104
3416.992188	-49.968113
3417.968750	-50.307579
3418.945312	-50.479084
3419.921875	-50.607922
3420.898438	-51.092010
3421.875000	-51.828152
3422.851562	-51.266914
3423.828125	-51.666363
3424.804688	-52.705254
3425.781250	-50.311039
3426.757812	-49.354668
3427.734375	-49.396801
3428.710938	-49.431999
3429.687500	-51.194458
3430.664062	-51.021915
3431.640625	-52.086483
3432.617188	-51.087616
3433.593750	-51.316971
3434.570312	-50.298725
3435.546875	-50.306351
3436.523438	-49.886238
3437.500000	-50.636341
3438.476562	-50.582623
3439.453125	-49.509605
3440.429688	-50.299797
3441.406250	-50.022026
3442.382812	-50.728195
3443.359375	-50.434540
3444.335938	-48.988991
3445.312500	-51.378433
3446.289062	-48.134495
3447.265625	-48.740307
3448.242188	-49.820374
3449.218750	-50.229382
3450.195312	-49.594860
3451.171875	-49.136147
3452.148438	-50.543888
3453.125000	-51.438126
3454.101562	-48.236164
3455.078125	-48.568726
3456.054688	-50.136566
3457.031250	-48.784367
3458.007812	-49.676205
3458.984375	-50.695988
3459.960938	-50.394722
3460.937500	-49.289082
3461.914062	-49.554935
3462.890625	-50.106205
3463.867188	-50.064083
3464.843750	-48.808060
3465.820312	-50.485302
3466.796875	-48.702663
3467.773438	-48.425453
3468.750000	-50.172691
3469.726562	-49.175198
3470.703125	-49.294777
3471.679688	-48.904625
3472.656250	-50.340145
3473.632812	-49.476753
3474.609375	-48.609398
3475.585938	-49.257095
3476.562500	-48.470673
3477.539062	-48.980461
3478.515625	-50.027370
3479.492188	-48.389618
3480.468750	-47.506989
3481.445312	-48.991745
3482.421875	-50.054974
3483.398438	-48.886654
3484.375000	-48.769573
3485.351562	-47.404385
3486.328125	-48.690044
3487.304688	-50.114429
3488.281250	-47.649376
3489.257812	-47.103695
3490.234375	-49.790680
3491.210938	-50.336819
3492.187500	-49.545341
3493.164062	-48.047394
3494.140625	-47.323231
3495.117188	-48.258057
3496.093750	-47.978371
3497.070312	-49.037540
3498.046875	-48.050549
3499.023438	-49.283546
3500.000000	-48.021812
3500.976562	-49.757565
3501.953125	-49.838337
3502.929688	-48.489307
3503.906250	-48.197807
3504.882812	-47.299255
3505.859375	-47.244404
3506.835938	-48.040924
3507.812500	-47.566708
3508.789062	-48.239735
3509.765625	-47.867165
3510.742188	-46.011948
3511.718750	-46.845486
3512.695312	-47.357868
3513.671875	-47.397606
3514.648438	-45.417953
3515.625000	-46.532810
3516.601562	-47.024853
3517.578125	-47.011868
3518.554688	-45.732876
3519.531250	-47.854755
3520.507812	-46.315315
3521.484375	-47.792027
3522.460938	-48.593658
3523.437500	-47.302788
3524.414062	-46.074120
3525.390625	-45.117680
3526.367188	-46.419815
3527.343750	-45.345844
3528.320312	-45.164005
3529.296875	-46.114777
3530.273438	-45.220798
3531.250000	-45.169941
3532.226562	-44.768890
3533.203125	-45.166515
3534.179688	-44.373634
3535.156250	-44.102524
3536.132812	-45.057827
3537.109375	-45.467773
3538.085938	-44.957146
3539.062500	-43.238037
3540.039062	-46.201504
3541.015625	-45.997761
3541.992188	-46.560005
3542.968750	-48.269833
3543.945312	-46.063068
3544.921875	-45.075626
3545.898438	-42.661140
3546.875000	-44.594788
3547.851562	-44.201157
3548.828125	-43.695446
3549.804688	-43.082966
3550.781250	-43.259705
3551.757812	-42.287106
3552.734375	-44.496162
3553.710938	-43.518444
3554.687500	-44.012863
3555.664062	-43.875092
3556.640625	-43.302750
3557.617188	-43.889225
3558.593750	-42.945278
3559.570312	-42.641315
3560.546875	-42.239338
3561.523438	-44.552521
3562.500000	-43.503464
3563.476562	-42.635914
3564.453125	-42.644230
3565.429688	-41.996479
3566.406250	-40.971317
3567.382812	-40.520153
3568.359375	-42.967529
3569.335938	-41.062054
3570.312500	-41.559372
3571.289062	-42.285286
3572.265625	-43.179405
3573.242188	-43.089973
3574.218750	-41.384983
3575.195312	-39.629791
3576.171875	-40.100727
3577.148438	-39.915558
3578.125000	-40.829571
3579.101562	-40.495811
3580.078125	-41.202263
3581.054688	-40.542591
3582.031250	-39.741985
3583.007812	-39.404858
3583.984375	-39.871201
3584.960938	-40.224472
3585.937500	-41.575615
3586.914062	-40.655155
3587.890625	-38.275642
3588.867188	-38.282970
3589.843750	-38.285778
3590.820312	-38.060062
3591.796875	-38.585701
3592.773438	-38.591049
3593.750000	-38.536133
3594.726562	-40.502243
3595.703125	-40.704659
3596.679688	-40.219017
3597.656250	-38.106922
3598.632812	-36.867638
3599.609375	-37.344017
3600.585938	-37.616112
3601.562500	-39.172085
3602.539062	-38.407993
3603.515625	-38.801403
3604.492188	-39.167351
3605.468750	-39.273094
3606.445312	-38.847942
3607.421875	-39.415092
3608.398438	-38.522114
3609.375000	-37.680016
3610.351562	-37.858082
3611.328125	-36.405582
3612.304688	-38.022179
3613.281250	-39.284424
3614.257812	-39.705097
3615.234375	-39.910404
3616.210938	-37.438160
3617.187500	-38.826996
3618.164062	-38.264515
3619.140625	-37.761688
3620.117188	-36.190273
3621.093750	-35.271305
3622.070312	-35.030590
3623.046875	-36.970596
3624.023438	-38.557362
3625.000000	-38.542683
3625.976562	-37.802845
3626.953125	-37.181362
3627.929688	-37.457424
3628.906250	-37.591846
3629.882812	-37.144527
3630.859375	-36.637486
3631.835938	-37.544357
3632.812500	-37.786140
3633.789062	-37.120670
3634.765625	-37.553837
3635.742188	-38.116516
3636.718750	-39.032192
3637.695312	-39.083755
3638.671875	-38.254135
3639.648438	-39.909328
3640.625000	-39.489067
3641.601562	-38.265888
3642.578125	-37.807964
3643.554688	-38.748676
3644.531250	-39.337246
3645.507812	-39.231636
3646.484375	-39.622936
3647.460938	-38.662205
3648.437500	-37.688267
3649.414062	-38.706165
3650.390625	-38.553097
3651.367188	-37.760048
3652.343750	-38.451984
3653.320312	-38.608131
3654.296875	-37.552349
3655.273438	-37.696438
3656.250000	-38.346970
3657.226562	-37.864037
3658.203125	-39.608776
3659.179688	-39.815731
3660.156250	-39.152920
3661.132812	-40.104141
3662.109375	-38.886955
3663.085938	-39.683472
3664.062500	-38.437840
3665.039062	-38.091145
3666.015625	-39.777695
3666.992188	-38.352581
3667.968750	-38.558144
3668.945312	-38.662720
3669.921875	-38.232182
3670.898438	-39.978539
3671.875000	-37.307743
3672.851562	-38.983265
3673.828125	-38.260815
3674.804688	-38.923302
3675.781250	-39.412334
3676.757812	-40.423256
3677.734375	-39.892105
3678.710938	-39.040741
3679.687500	-37.331783
3680.664062	-38.039452
3681.640625	-39.008251
3682.617188	-39.453358
3683.593750	-39.171585
3684.570312	-38.914421
3685.546875	-40.173149
3686.523438	-39.874401
3687.500000	-39.333572
3688.476562	-39.847141
3689.453125	-39.264591
3690.429688	-39.206085
3691.406250	-39.904507
3692.382812	-40.571362
3693.359375	-39.255524
3694.335938	-39.573483
3695.312500	-40.110851
3696.289062	-39.792713
3697.265625	-40.485283
3698.242188	-40.905216
3699.218750	-40.185219
3700.195312	-40.133434
3701.171875	-42.119324
3702.148438	-40.987087
3703.125000	-39.754154
3704.101562	-40.551872
3705.078125	-42.549603
3706.054688	-41.520741
3707.031250	-43.846355
3708.007812	-40.825851
3708.984375	-40.070591
3709.960938	-41.260799
3710.937500	-41.903778
3711.914062	-41.577091
3712.890625	-42.459442
3713.867188	-42.376980
3714.843750	-40.260799
3715.820312	-42.663670
3716.796875	-42.516064
3717.773438	-42.447304
3718.750000	-42.553013
3719.726562	-42.857834
3720.703125	-43.383053
3721.679688	-43.418201
3722.656250	-45.067207
3723.632812	-41.695637
3724.609375	-42.697624
3725.585938	-42.033421
3726.562500	-42.015167
3727.539062	-41.277039
3728.515625	-41.605907
3729.492188	-42.506702
3730.468750	-43.522682
3731.445312	-42.719532
3732.421875	-44.668362
3733.398438	-45.917091
3734.375000	-44.704414
3735.351562	-43.953632
3736.328125	-45.658649
3737.304688	-44.998367
3738.281250	-45.714088
3739.257812	-46.143192
3740.234375	-45.162060
3741.210938	-43.855881
3742.187500	-44.238682
3743.164062	-44.150532
3744.140625	-45.009491
3745.117188	-44.909580
3746.093750	-44.901829
3747.070312	-46.693336
3748.046875	-45.557541
3749.023438	-47.539978
3750.000000	-46.238148
3750.976562	-45.754745
3751.953125	-45.064808
3752.929688	-46.911663
3753.906250	-45.956818
3754.882812	-46.521210
3755.859375	-44.845993
3756.835938	-47.368000
3757.812500	-47.290028
3758.789062	-46.106533
3759.765625	-47.758385
3760.742188	-47.690998
3761.718750	-46.214413
3762.695312	-47.186604
3763.671875	-49.639736
3764.648438	-49.319126
3765.625000	-49.826382
3766.601562	-48.802761
3767.578125	-47.563282
3768.554688	-47.903397
3769.531250	-48.478802
3770.507812	-45.393917
3771.484375	-45.949844
3772.460938	-45.212475
3773.437500	-47.196983
3774.414062	-47.819000
3775.390625	-47.223076
3776.367188	-48.634514
3777.343750	-49.339294
3778.320312	-47.350613
3779.296875	-49.666828
3780.273438	-49.354214
3781.250000	-49.190674
3782.226562	-47.389614
3783.203125	-48.273296
3784.179688	-48.218334
3785.156250	-49.396538
3786.132812	-48.981506
3787.109375	-47.384266
3788.085938	-49.311104
3789.062500	-49.812618
3790.039062	-50.045456
3791.015625	-48.846371
3791.992188	-46.910912
3792.968750	-48.204857
3793.945312	-48.526848
3794.921875	-49.820950
3795.898438	-48.110439
3796.875000	-48.948696
3797.851562	-49.025364
3798.828125	-47.633133
3799.804688	-48.995407
3800.781250	-49.002159
3801.757812	-47.648483
3802.734375	-49.976620
3803.710938	-49.677151
3804.687500	-49.568569
3805.664062	-50.027874
3806.640625	-49.570000
3807.617188	-51.526886
3808.593750	-49.894947
3809.570312	-50.818596
3810.546875	-50.180584
3811.523438	-49.797916
3812.500000	-49.216141
3813.476562	-50.959278
3814.453125	-50.914246
3815.429688	-50.968082
3816.406250	-50.319717
3817.382812	-49.416977
3818.359375	-49.365604
3819.335938	-51.159004
3820.312500	-51.295902
3821.289062	-51.438370
3822.265625	-51.727943
3823.242188	-51.362316
3824.218750	-51.911350
3825.195312	-50.932995
3826.171875	-49.770363
3827.148438	-50.222271
3828.125000	-49.411858
3829.101562	-51.175022
3830.078125	-51.576286
3831.054688	-51.961304
3832.031250	-52.546188
3833.007812	-51.429016
3833.984375	-50.030544
3834.960938	-50.378780
3835.937500	-51.136913
3836.914062	-50.900410
3837.890625	-51.391396
3838.867188	-52.685917
3839.843750	-50.777039
3840.820312	-52.689621
3841.796875	-54.640041
3842.773438	-54.130749
3843.750000	-51.949589
3844.726562	-51.049301
3845.703125	-51.504318
3846.679688	-50.663582
3847.656250	-53.079594
3848.632812	-52.713665
3849.609375	-52.581577
3850.585938	-51.439404
3851.562500	-52.387505
3852.539062	-51.422428
3853.515625	-50.598988
3854.492188	-52.144726
3855.468750	-51.425743
3856.445312	-52.535793
3857.421875	-53.595943
3858.398438	-53.954197
3859.375000	-52.728336
3860.351562	-53.205112
3861.328125	-54.752846
3862.304688	-53.377666
3863.281250	-53.233406
3864.257812	-53.298183
3865.234375	-52.836090
3866.210938	-52.263283
3867.187500	-53.171879
3868.164062	-52.574993
3869.140625	-52.341473
3870.117188	-52.025414
3871.093750	-53.225441
3872.070312	-53.082016
3873.046875	-53.471718
3874.023438	-54.267845
3875.000000	-56.241028
3875.976562	-54.720116
3876.953125	-52.698402
3877.929688	-52.629562
3878.906250	-52.830708
3879.882812	-53.758923
3880.859375	-53.336334
3881.835938	-54.025867
3882.812500	-54.570793
3883.789062	-55.030884
3884.765625	-53.793083
3885.742188	-54.161373
3886.718750	-53.278038
3887.695312	-54.290325
3888.671875	-52.616135
3889.648438	-53.340263
3890.625000	-55.366848
3891.601562	-54.448662
3892.578125	-53.960430
3893.554688	-54.193977
3894.531250	-52.746601
3895.507812	-53.876755
3896.484375	-54.343201
3897.460938	-54.912983
3898.437500	-55.077705
3899.414062	-54.902931
3900.390625	-54.596577
3901.367188	-56.533405
3902.343750	-54.364479
3903.320312	-53.711819
3904.296875	-54.363041
3905.273438	-54.071503
3906.250000	-54.029522
3907.226562	-53.487049
3908.203125	-52.189049
3909.179688	-52.492420
3910.156250	-54.643501
3911.132812	-54.576748
3912.109375	-55.948444
3913.085938	-56.770752
3914.062500	-56.017387
3915.039062	-56.047325
3916.015625	-56.127281
3916.992188	-53.964523
3917.968750	-54.371262
3918.945312	-53.210903
3919.921875	-54.010677
3920.898438	-55.019974
3921.875000	-54.623596
3922.851562	-53.621838
3923.828125	-54.657536
3924.804688	-55.421207
3925.781250	-54.974407
3926.757812	-53.577972
3927.734375	-53.761581
3928.710938	-53.864788
3929.687500	-55.254921
3930.664062	-54.348576
3931.640625	-53.871449
3932.617188	-54.657818
3933.593750	-54.335079
3934.570312	-55.185875
3935.546875	-55.056988
3936.523438	-55.269970
3937.500000	-55.410984
3938.476562	-56.222328
3939.453125	-54.553867
3940.429688	-56.179249
3941.406250	-55.731483
3942.382812	-55.598732
3943.359375	-54.222301
3944.335938	-53.428699
3945.312500	-53.554707
3946.289062	-53.846054
3947.265625	-53.631023
3948.242188	-53.829636
3949.218750	-54.121803
3950.195312	-52.194244
3951.171875	-53.528595
3952.148438	-54.668377
3953.125000	-52.998112
3954.101562	-51.496799
3955.078125	-52.331150
3956.054688	-54.736771
3957.031250	-54.559170
3958.007812	-53.473969
3958.984375	-53.703854
3959.960938	-53.576866
3960.937500	-54.037800
3961.914062	-53.477276
3962.890625	-53.336567
3963.867188	-53.800060
3964.843750	-54.355556
3965.820312	-53.962910
3966.796875	-53.815491
3967.773438	-53.328873
3968.750000	-53.331192
3969.726562	-53.801975
3970.703125	-55.015930
3971.679688	-55.648087
3972.656250	-53.643322
3973.632812	-54.837025
3974.609375	-53.431908
3975.585938	-54.550808
3976.562500	-54.760139
3977.539062	-54.366306
3978.515625	-53.189079
3979.492188	-53.020882
3980.468750	-53.336571
3981.445312	-53.680519
3982.421875	-53.905491
3983.398438	-52.593010
3984.375000	-53.379677
3985.351562	-54.035835
3986.328125	-52.453617
3987.304688	-51.068932
3988.281250	-53.135750
3989.257812	-51.794468
3990.234375	-52.462952
3991.210938	-53.662209
3992.187500	-53.508171
3993.164062	-52.574474
3994.140625	-53.377075
3995.117188	-54.156265
3996.093750	-53.458942
3997.070312	-53.088940
3998.046875	-54.380199
3999.023438	-53.545765
4000.000000	-50.855747
4000.976562	-51.140701
4001.953125	-51.849789
4002.929688	-51.930298
4003.906250	-52.751621
4004.882812	-52.071941
4005.859375	-52.577888
4006.835938	-50.502396
4007.812500	-50.903122
4008.789062	-52.375362
4009.765625	-51.426994
4010.742188	-52.245419
4011.718750	-52.556980
4012.695312	-51.019104
4013.671875	-51.343391
4014.648438	-51.361389
4015.625000	-51.888123
4016.601562	-52.541389
4017.578125	-51.343540
4018.554688	-49.646233
4019.531250	-51.792675
4020.507812	-50.948387
4021.484375	-51.528660
4022.460938	-51.707306
4023.437500	-52.578053
4024.414062	-51.987686
4025.390625	-51.275112
4026.367188	-51.036404
4027.343750	-50.992657
4028.320312	-51.258717
4029.296875	-49.829121
4030.273438	-52.362339
4031.250000	-51.129364
4032.226562	-52.309711
4033.203125	-50.225979
4034.179688	-51.116280
4035.156250	-51.110729
4036.132812	-50.703671
4037.109375	-50.833939
4038.085938	-50.275734
4039.062500	-49.917297
4040.039062	-50.263275
4041.015625	-51.030094
4041.992188	-50.111515
4042.968750	-49.088223
4043.945312	-50.325439
4044.921875	-49.784412
4045.898438	-49.631340
4046.875000	-50.231544
4047.851562	-50.253796
4048.828125	-50.445484
4049.804688	-49.827091
4050.781250	-50.260456
4051.757812	-49.921917
4052.734375	-48.426380
4053.710938	-49.768356
4054.687500	-48.925034
4055.664062	-48.616081
4056.640625	-49.532845
4057.617188	-47.876614
4058.593750	-47.628616
4059.570312	-48.401684
4060.546875	-47.971100
4061.523438	-50.293301
4062.500000	-48.055149
4063.476562	-49.165527
4064.453125	-49.444626
4065.429688	-47.711872
4066.406250	-48.858421
4067.382812	-48.360409
4068.359375	-48.064838
4069.335938	-47.402397
4070.312500	-47.670139
4071.289062	-49.618519
4072.265625	-46.934029
4073.242188	-46.812645
4074.218750	-46.755604
4075.195312	-46.022507
4076.171875	-46.608418
4077.148438	-46.052620
4078.125000	-46.802296
4079.101562	-47.884117
4080.078125	-48.401638
4081.054688	-48.237968
4082.031250	-46.156921
4083.007812	-46.004440
4083.984375	-46.591442
4084.960938	-45.509823
4085.937500	-47.429058
4086.914062	-47.217705
4087.890625	-45.701347
4088.867188	-46.633266
4089.843750	-46.349945
4090.820312	-43.848072
4091.796875	-45.013206
4092.773438	-45.947723
4093.750000	-46.288956
4094.726562	-45.699100
4095.703125	-44.643970
4096.679688	-44.993896
4097.656250	-44.025208
4098.632812	-44.398788
4099.609375	-44.360058
4100.585938	-45.247978
4101.562500	-44.312477
4102.539062	-44.810936
4103.515625	-43.389633
4104.492188	-44.705299
4105.468750	-44.299217
4106.445312	-46.339989
4107.421875	-44.490093
4108.398438	-45.081833
4109.375000	-44.285778
4110.351562	-43.745018
4111.328125	-43.377769
4112.304688	-42.893612
4113.281250	-42.550503
4114.257812	-42.585476
4115.234375	-42.178566
4116.210938	-42.891689
4117.187500	-42.793823
4118.164062	-42.480885
4119.140625	-42.379883
4120.117188	-42.991768
4121.093750	-44.173882
4122.070312	-44.143711
4123.046875	-44.217136
4124.023438	-42.473183
4125.000000	-42.495342
4125.976562	-43.308125
4126.953125	-44.890575
4127.929688	-43.791466
4128.906250	-43.324070
4129.882812	-43.516312
4130.859375	-43.582172
4131.835938	-43.782318
4132.812500	-42.905655
4133.789062	-44.162334
4134.765625	-42.012188
4135.742188	-42.932636
4136.718750	-42.819775
4137.695312	-41.816235
4138.671875	-43.284000
4139.648438	-42.832806
4140.625000	-42.556267
4141.601562	-43.435905
4142.578125	-44.056446
4143.554688	-42.944309
4144.531250	-43.493156
4145.507812	-42.498909
4146.484375	-43.593056
4147.460938	-43.263969
4148.437500	-44.255241
4149.414062	-43.880264
4150.390625	-43.431961
4151.367188	-43.011017
4152.343750	-43.340313
4153.320312	-43.421898
4154.296875	-42.420319
4155.273438	-43.259914
4156.250000	-41.914249
4157.226562	-40.974499
4158.203125	-41.569412
4159.179688	-42.601643
4160.156250	-43.754829
4161.132812	-42.589108
4162.109375	-43.485607
4163.085938	-43.299694
4164.062500	-44.372604
4165.039062	-44.082672
4166.015625	-43.541653
4166.992188	-45.126358
4167.968750	-43.162067
4168.945312	-44.340931
4169.921875	-43.381889
4170.898438	-44.521183
4171.875000	-43.997215
4172.851562	-44.538643
4173.828125	-45.297295
4174.804688	-43.919312
4175.781250	-43.549572
4176.757812	-44.470592
4177.734375	-43.186375
4178.710938	-42.426952
4179.687500	-43.153763
4180.664062	-42.487156
4181.640625	-42.847607
4182.617188	-44.729267
4183.593750	-45.863884
4184.570312	-45.453381
4185.546875	-44.765369
4186.523438	-45.192505
4187.500000	-45.368683
4188.476562	-46.562111
4189.453125	-46.256733
4190.429688	-45.973946
4191.406250	-43.943233
4192.382812	-44.527782
4193.359375	-44.909256
4194.335938	-46.731121
4195.312500	-45.312119
4196.289062	-46.408882
4197.265625	-45.843037
4198.242188	-44.611870
4199.218750	-44.435360
4200.195312	-44.744511
4201.171875	-44.573956
4202.148438	-46.693378
4203.125000	-45.832108
4204.101562	-46.393585
4205.078125	-49.244640
4206.054688	-48.454842
4207.031250	-46.250629
4208.007812	-46.559212
4208.984375	-46.908855
4209.960938	-46.547775
4210.937500	-45.969269
4211.914062	-46.872124
4212.890625	-47.724396
4213.867188	-47.834309
4214.843750	-47.151783
4215.820312	-47.642185
4216.796875	-46.848236
4217.773438	-48.603001
4218.750000	-47.596325
4219.726562	-46.681877
4220.703125	-48.352547
4221.679688	-47.786800
4222.656250	-47.897617
4223.632812	-47.805450
4224.609375	-49.363522
4225.585938	-49.840630
4226.562500	-49.005772
4227.539062	-47.767918
4228.515625	-48.614677
4229.492188	-49.488239
4230.468750	-49.948219
4231.445312	-49.788509
4232.421875	-50.291023
4233.398438	-49.844360
4234.375000	-50.588024
4235.351562	-50.389156
4236.328125	-48.861343
4237.304688	-49.257595
4238.281250	-49.566322
4239.257812	-50.877476
4240.234375	-49.696075
4241.210938	-48.414284
4242.187500	-49.130749
4243.164062	-49.189316
4244.140625	-51.515881
4245.117188	-51.669666
4246.093750	-49.536930
4247.070312	-49.918301
4248.046875	-49.617851
4249.023438	-50.644913
4250.000000	-50.631054
4250.976562	-50.405411
4251.953125	-52.160046
4252.929688	-51.647648
4253.906250	-49.724178
4254.882812	-50.414501
4255.859375	-50.198704
4256.835938	-52.506905
4257.812500	-51.520927
4258.789062	-51.281982
4259.765625	-49.557247
4260.742188	-48.700272
4261.718750	-49.437313
4262.695312	-49.881119
4263.671875	-50.347507
4264.648438	-50.935291
4265.625000	-49.859692
4266.601562	-51.409855
4267.578125	-52.196766
4268.554688	-51.794350
4269.531250	-51.831036
4270.507812	-51.356148
4271.484375	-51.213654
4272.460938	-51.915970
4273.437500	-51.330685
4274.414062	-51.562912
4275.390625	-50.304043
4276.367188	-51.049541
4277.343750	-51.361103
4278.320312	-49.958370
4279.296875	-50.972542
4280.273438	-51.612629
4281.250000	-51.177017
4282.226562	-50.547859
4283.203125	-49.553902
4284.179688	-50.488438
4285.156250	-53.977219
4286.132812	-52.909248
4287.109375	-51.763927
4288.085938	-54.172268
4289.062500	-53.425617
4290.039062	-51.706959
4291.015625	-52.904747
4291.992188	-54.307297
4292.968750	-53.932198
4293.945312	-53.923073
4294.921875	-52.514400
4295.898438	-51.913193
4296.875000	-52.188122
4297.851562	-51.911259
4298.828125	-52.396381
4299.804688	-51.470512
4300.781250	-52.050884
4301.757812	-51.734856
4302.734375	-51.254524
4303.710938	-51.862278
4304.687500	-52.175781
4305.664062	-51.991402
4306.640625	-54.247448
4307.617188	-52.782734
4308.593750	-52.559490
4309.570312	-53.231495
4310.546875	-53.012562
4311.523438	-53.613277
4312.500000	-53.124470
4313.476562	-53.986130
4314.453125	-55.227608
4315.429688	-55.807384
4316.406250	-55.215202
4317.382812	-53.755573
4318.359375	-53.089428
4319.335938	-53.503975
4320.312500	-53.778008
4321.289062	-53.084126
4322.265625	-54.172440
4323.242188	-52.540424
4324.218750	-53.605694
4325.195312	-55.557716
4326.171875	-54.264240
4327.148438	-53.323036
4328.125000	-53.700397
4329.101562	-54.168877
4330.078125	-54.820408
4331.054688	-54.106167
4332.031250	-54.434608
4333.007812	-54.138142
4333.984375	-52.989136
4334.960938	-54.546276
4335.937500	-54.982018
4336.914062	-54.797844
4337.890625	-54.783405
4338.867188	-54.885826
4339.843750	-55.048790
4340.820312	-54.339401
4341.796875	-53.533234
4342.773438	-54.539997
4343.750000	-56.776131
4344.726562	-54.820354
4345.703125	-54.354202
4346.679688	-54.548763
4347.656250	-55.664196
4348.632812	-56.808891
4349.609375	-54.028049
4350.585938	-55.106262
4351.562500	-54.673271
4352.539062	-54.611935
4353.515625	-54.521763
4354.492188	-54.461330
4355.468750	-54.500534
4356.445312	-55.428913
4357.421875	-55.897430
4358.398438	-54.882072
4359.375000	-56.506737
4360.351562	-56.372486
4361.328125	-55.396858
4362.304688	-55.256264
4363.281250	-55.834229
4364.257812	-55.634258
4365.234375	-57.276077
4366.210938	-55.584484
4367.187500	-55.280922
4368.164062	-54.616226
4369.140625	-56.079391
4370.117188	-55.995708
4371.093750	-55.598835
4372.070312	-55.707848
4373.046875	-56.084110
4374.023438	-54.930737
4375.000000	-55.881466
4375.976562	-57.083870
4376.953125	-56.530922
4377.929688	-55.836811
4378.906250	-55.014687
4379.882812	-56.239925
4380.859375	-55.815578
4381.835938	-54.770069
4382.812500	-54.632885
4383.789062	-55.456451
4384.765625	-54.551155
4385.742188	-55.627419
4386.718750	-56.085678
4387.695312	-55.979786
4388.671875	-55.932671
4389.648438	-56.352734
4390.625000	-56.155655
4391.601562	-56.120636
4392.578125	-56.441463
4393.554688	-56.043270
4394.531250	-56.513828
4395.507812	-55.694134
4396.484375	-56.008415
4397.460938	-55.218349
4398.437500	-54.875694
4399.414062	-55.166634
4400.390625	-54.681282
4401.367188	-54.797394
4402.343750	-54.626942
4403.320312	-54.887321
4404.296875	-54.964783
4405.273438	-55.796341
4406.250000	-56.653347
4407.226562	-56.236492
4408.203125	-56.556232
4409.179688	-56.636730
4410.156250	-55.273785
4411.132812	-54.693573
4412.109375	-56.583466
4413.085938	-56.799412
4414.062500	-56.985626
4415.039062	-56.622749
4416.015625	-56.271622
4416.992188	-56.779877
4417.968750	-57.527290
4418.945312	-57.140400
4419.921875	-55.908657
4420.898438	-55.457012
4421.875000	-55.586208
4422.851562	-55.714127
4423.828125	-55.654316
4424.804688	-55.421242
4425.781250	-56.543167
4426.757812	-56.821957
4427.734375	-56.766777
4428.710938	-56.326443
4429.687500	-57.046288
4430.664062	-55.338242
4431.640625	-55.870377
4432.617188	-55.732052
4433.593750	-54.831955
4434.570312	-55.248238
4435.546875	-56.383827
4436.523438	-56.166130
4437.500000	-56.602016
4438.476562	-56.186760
4439.453125	-56.424000
4440.429688	-55.362133
4441.406250	-56.474983
4442.382812	-56.372875
4443.359375	-56.917637
4444.335938	-57.869362
4445.312500	-56.490105
4446.289062	-55.665470
4447.265625	-55.872322
4448.242188	-55.914055
4449.218750	-54.767090
4450.195312	-55.547115
4451.171875	-57.269657
4452.148438	-56.426109
4453.125000	-57.121712
4454.101562	-56.094265
4455.078125	-54.817398
4456.054688	-55.931339
4457.031250	-55.175354
4458.007812	-57.535416
4458.984375	-57.071018
4459.960938	-56.847408
4460.937500	-57.886093
4461.914062	-57.547459
4462.890625	-57.790958
4463.867188	-56.245148
4464.843750	-55.725506
4465.820312	-56.619240
4466.796875	-56.140694
4467.773438	-57.695965
4468.750000	-57.622902
4469.726562	-55.604626
4470.703125	-55.145824
4471.679688	-54.761337
4472.656250	-55.565968
4473.632812	-55.895962
4474.609375	-55.743454
4475.585938	-55.201004
4476.562500	-56.316963
4477.539062	-54.497955
4478.515625	-56.264961
4479.492188	-53.961971
4480.468750	-53.773972
4481.445312	-55.279709
4482.421875	-56.256283
4483.398438	-56.434109
4484.375000	-56.114628
4485.351562	-55.813663
4486.328125	-54.818943
4487.304688	-56.027977
4488.281250	-55.666256
4489.257812	-54.185013
4490.234375	-52.691044
4491.210938	-54.087231
4492.187500	-53.500938
4493.164062	-55.957329
4494.140625	-56.285030
4495.117188	-55.314713
4496.093750	-56.089725
4497.070312	-55.538971
4498.046875	-55.818462
4499.023438	-56.557003
4500.000000	-54.548565
4500.976562	-54.188278
4501.953125	-54.009789
4502.929688	-52.783752
4503.906250	-53.836166
4504.882812	-54.968094
4505.859375	-54.235111
4506.835938	-54.244556
4507.812500	-54.095734
4508.789062	-55.561214
4509.765625	-54.332573
4510.742188	-55.184864
4511.718750	-55.756966
4512.695312	-54.329620
4513.671875	-54.711678
4514.648438	-54.221252
4515.625000	-55.039276
4516.601562	-54.298889
4517.578125	-54.899929
4518.554688	-54.837704
4519.531250	-54.279293
4520.507812	-53.412418
4521.484375	-54.446869
4522.460938	-52.888855
4523.437500	-54.102554
4524.414062	-53.666630
4525.390625	-55.400612
4526.367188	-52.961678
4527.343750	-54.416470
4528.320312	-53.537762
4529.296875	-54.293213
4530.273438	-53.403091
4531.250000	-52.672085
4532.226562	-54.055294
4533.203125	-53.347958
4534.179688	-52.863865
4535.156250	-52.031593
4536.132812	-53.241936
4537.109375	-52.678352
4538.085938	-52.767944
4539.062500	-51.312786
4540.039062	-52.314590
4541.015625	-51.181755
4541.992188	-51.679497
4542.968750	-53.755417
4543.945312	-51.776932
4544.921875	-52.283890
4545.898438	-52.756454
4546.875000	-52.243397
4547.851562	-52.386322
4548.828125	-52.000191
4549.804688	-52.333126
4550.781250	-51.865643
4551.757812	-53.476048
4552.734375	-54.407890
4553.710938	-52.567657
4554.687500	-53.228764
4555.664062	-51.146954
4556.640625	-52.903206
4557.617188	-53.584709
4558.593750	-51.684052
4559.570312	-53.723991
4560.546875	-51.743610
4561.523438	-52.152657
4562.500000	-51.109013
4563.476562	-51.549686
4564.453125	-51.617947
4565.429688	-51.399693
4566.406250	-52.529747
4567.382812	-51.850368
4568.359375	-52.199520
4569.335938	-51.716843
4570.312500	-50.648876
4571.289062	-50.332371
4572.265625	-50.994865
4573.242188	-51.979717
4574.218750	-51.271656
4575.195312	-51.734787
4576.171875	-51.063213
4577.148438	-49.548187
4578.125000	-51.034908
4579.101562	-51.427814
4580.078125	-50.739998
4581.054688	-51.349731
4582.031250	-51.204769
4583.007812	-50.972599
4583.984375	-49.491596
4584.960938	-50.264069
4585.937500	-49.919510
4586.914062	-49.236679
4587.890625	-50.147388
4588.867188	-49.591595
4589.843750	-48.463661
4590.820312	-49.106945
4591.796875	-49.129063
4592.773438	-49.907913
4593.750000	-50.939423
4594.726562	-50.857525
4595.703125	-50.386963
4596.679688	-50.308128
4597.656250	-49.243465
4598.632812	-49.794315
4599.609375	-48.094566
4600.585938	-49.647652
4601.562500	-49.880623
4602.539062	-49.366634
4603.515625	-50.273884
4604.492188	-49.029762
4605.468750	-49.793983
4606.445312	-48.893730
4607.421875	-48.290207
4608.398438	-49.353973
4609.375000	-48.748013
4610.351562	-49.863091
4611.328125	-47.618027
4612.304688	-48.876484
4613.281250	-47.174500
4614.257812	-46.968643
4615.234375	-47.304581
4616.210938	-47.877163
4617.187500	-48.317562
4618.164062	-48.394234
4619.140625	-47.797550
4620.117188	-48.350803
4621.093750	-48.371998
4622.070312	-47.226562
4623.046875	-48.762497
4624.023438	-46.678844
4625.000000	-46.967247
4625.976562	-47.422821
4626.953125	-45.134983
4627.929688	-46.097107
4628.906250	-45.601868
4629.882812	-46.758530
4630.859375	-46.570957
4631.835938	-47.635872
4632.812500	-46.345020
4633.789062	-47.100948
4634.765625	-47.430069
4635.742188	-47.313671
4636.718750	-46.774811
4637.695312	-46.853374
4638.671875	-47.121292
4639.648438	-46.977875
4640.625000	-48.990925
4641.601562	-48.002632
4642.578125	-47.432568
4643.554688	-47.193787
4644.531250	-46.714436
4645.507812	-46.714558
4646.484375	-47.458698
4647.460938	-46.454044
4648.437500	-45.766602
4649.414062	-46.362297
4650.390625	-46.932430
4651.367188	-47.025677
4652.343750	-47.555958
4653.320312	-48.032368
4654.296875	-46.992687
4655.273438	-46.902279
4656.250000	-48.310032
4657.226562	-47.312675
4658.203125	-46.926308
4659.179688	-46.564690
4660.156250	-47.157658
4661.132812	-48.298016
4662.109375	-47.345417
4663.085938	-45.670200
4664.062500	-46.021553
4665.039062	-47.801338
4666.015625	-47.602474
4666.992188	-46.649910
4667.968750	-45.772396
4668.945312	-46.750267
4669.921875	-46.554295
4670.898438	-46.273754
4671.875000	-46.874371
4672.851562	-48.868954
4673.828125	-46.740982
4674.804688	-47.614723
4675.781250	-46.765285
4676.757812	-47.700096
4677.734375	-47.350163
4678.710938	-46.953472
4679.687500	-47.258240
4680.664062	-46.959064
4681.640625	-45.695248
4682.617188	-45.402176
4683.593750	-47.017422
4684.570312	-47.328739
4685.546875	-47.692219
4686.523438	-46.752899
4687.500000	-47.675526
4688.476562	-48.290962
4689.453125	-47.754818
4690.429688	-47.608570
4691.406250	-47.072155
4692.382812	-46.774643
4693.359375	-47.721386
4694.335938	-46.877796
4695.312500	-47.105816
4696.289062	-48.363129
4697.265625	-47.899197
4698.242188	-47.877083
4699.218750	-47.721340
4700.195312	-48.593636
4701.171875	-47.974903
4702.148438	-48.599003
4703.125000	-47.871037
4704.101562	-47.366684
4705.078125	-49.094254
4706.054688	-48.121712
4707.031250	-48.158749
4708.007812	-49.240444
4708.984375	-49.953194
4709.960938	-48.625053
4710.937500	-48.395687
4711.914062	-48.359711
4712.890625	-48.586433
4713.867188	-48.440212
4714.843750	-48.937687
4715.820312	-50.412743
4716.796875	-50.587433
4717.773438	-48.997410
4718.750000	-50.597313
4719.726562	-49.606598
4720.703125	-50.853081
4721.679688	-50.290203
4722.656250	-50.942547
4723.632812	-50.643654
4724.609375	-50.477993
4725.585938	-51.025948
4726.562500	-49.630169
4727.539062	-49.750786
4728.515625	-50.628067
4729.492188	-49.830238
4730.468750	-49.877411
4731.445312	-49.406567
4732.421875	-50.431141
4733.398438	-50.997253
4734.375000	-49.879108
4735.351562	-48.441269
4736.328125	-51.221428
4737.304688	-50.698444
4738.281250	-51.189919
4739.257812	-50.615562
4740.234375	-52.678860
4741.210938	-52.774586
4742.187500	-51.533562
4743.164062	-51.446331
4744.140625	-53.125118
4745.117188	-53.314312
4746.093750	-52.297688
4747.070312	-50.388504
4748.046875	-51.472858
4749.023438	-52.347904
4750.000000	-52.702732
4750.976562	-51.453407
4751.953125	-50.722546
4752.929688	-51.292076
4753.906250	-51.376324
4754.882812	-52.532768
4755.859375	-53.336521
4756.835938	-52.179749
4757.812500	-53.537010
4758.789062	-50.783020
4759.765625	-51.723240
4760.742188	-54.133316
4761.718750	-53.593227
4762.695312	-54.521656
4763.671875	-54.180046
4764.648438	-53.707542
4765.625000	-53.087738
4766.601562	-52.967075
4767.578125	-54.000938
4768.554688	-52.434189
4769.531250	-52.981110
4770.507812	-54.528591
4771.484375	-54.155880
4772.460938	-53.176945
4773.437500	-52.902489
4774.414062	-53.012157
4775.390625	-52.790810
4776.367188	-53.895351
4777.343750	-52.727665
4778.320312	-53.236923
4779.296875	-54.050976
4780.273438	-55.169224
4781.250000	-54.548431
4782.226562	-52.842686
4783.203125	-52.269844
4784.179688	-53.270859
4785.156250	-55.115517
4786.132812	-53.806068
4787.109375	-55.048702
4788.085938	-55.110825
4789.062500	-56.093460
4790.039062	-56.107567
4791.015625	-53.415226
4791.992188	-54.608177
4792.968750	-55.137585
4793.945312	-54.432632
4794.921875	-54.023632
4795.898438	-51.930405
4796.875000	-51.705582
4797.851562	-52.645809
4798.828125	-53.866425
4799.804688	-53.167625
4800.781250	-53.264797
4801.757812	-53.940571
4802.734375	-54.990879
4803.710938	-55.461426
4804.687500	-54.780071
4805.664062	-54.894611
4806.640625	-55.488895
4807.617188	-55.336411
4808.593750	-57.386158
4809.570312	-55.656498
4810.546875	-54.663086
4811.523438	-55.556942
4812.500000	-55.865963
4813.476562	-55.329891
4814.453125	-55.226246
4815.429688	-54.562454
4816.406250	-54.668922
4817.382812	-54.876087
4818.359375	-55.081501
4819.335938	-55.105610
4820.312500	-55.233501
4821.289062	-54.925026
4822.265625	-57.132130
4823.242188	-56.107231
4824.218750	-54.806046
4825.195312	-55.283970
4826.171875	-53.934772
4827.148438	-55.736885
4828.125000	-56.244701
4829.101562	-57.192661
4830.078125	-57.301441
4831.054688	-55.812981
4832.031250	-55.919193
4833.007812	-56.581188
4833.984375	-57.244804
4834.960938	-55.840031
4835.937500	-55.106945
4836.914062	-55.575531
4837.890625	-56.246239
4838.867188	-55.457806
4839.843750	-55.152283
4840.820312	-55.750523
4841.796875	-56.505741
4842.773438	-55.344570
4843.750000	-55.256176
4844.726562	-55.264057
4845.703125	-56.081921
4846.679688	-55.525444
4847.656250	-55.815361
4848.632812	-54.975819
4849.609375	-53.906750
4850.585938	-55.339565
4851.562500	-56.132156
4852.539062	-56.590855
4853.515625	-56.664604
4854.492188	-55.296276
4855.468750	-55.385128
4856.445312	-55.584141
4857.421875	-56.533184
4858.398438	-58.297955
4859.375000	-56.031727
4860.351562	-56.254036
4861.328125	-57.399834
4862.304688	-56.433323
4863.281250	-56.319035
4864.257812	-56.003113
4865.234375	-56.400295
4866.210938	-57.377777
4867.187500	-55.655899
4868.164062	-55.142490
4869.140625	-56.664021
4870.117188	-55.959824
4871.093750	-55.617699
4872.070312	-56.311657
4873.046875	-56.302891
4874.023438	-56.407108
4875.000000	-55.780411
4875.976562	-56.113842
4876.953125	-56.019207
4877.929688	-56.787861
4878.906250	-56.899124
4879.882812	-56.740726
4880.859375	-56.279652
4881.835938	-56.715122
4882.812500	-57.021748
4883.789062	-57.282642
4884.765625	-56.723778
4885.742188	-56.098568
4886.718750	-55.353668
4887.695312	-56.815414
4888.671875	-56.861023
4889.648438	-56.050812
4890.625000	-57.154087
4891.601562	-58.030125
4892.578125	-56.236996
4893.554688	-57.543293
4894.531250	-57.445110
4895.507812	-56.463718
4896.484375	-56.866745
4897.460938	-58.012924
4898.437500	-57.125423
4899.414062	-57.851475
4900.390625	-57.504177
4901.367188	-57.366154
4902.343750	-56.453472
4903.320312	-57.443359
4904.296875	-57.435936
4905.273438	-57.259468
4906.250000	-57.586849
4907.226562	-57.048649
4908.203125	-56.231125
4909.179688	-54.581802
4910.156250	-55.705479
4911.132812	-57.096241
4912.109375	-56.472595
4913.085938	-57.874393
4914.062500	-58.353477
4915.039062	-57.813438
4916.015625	-55.459625
4916.992188	-55.912590
4917.968750	-55.427853
4918.945312	-57.244049
4919.921875	-59.104485
4920.898438	-56.615101
4921.875000	-56.261021
4922.851562	-56.254360
4923.828125	-55.771595
4924.804688	-55.964382
4925.781250	-55.904629
4926.757812	-56.377811
4927.734375	-56.479073
4928.710938	-56.314781
4929.687500	-55.417755
4930.664062	-54.324356
4931.640625	-55.249340
4932.617188	-57.714951
4933.593750	-55.466347
4934.570312	-55.615414
4935.546875	-57.097145
4936.523438	-55.936466
4937.500000	-56.552193
4938.476562	-55.863190
4939.453125	-57.309742
4940.429688	-56.148457
4941.406250	-57.072762
4942.382812	-56.703888
4943.359375	-57.179821
4944.335938	-56.721046
4945.312500	-56.378731
4946.289062	-55.287792
4947.265625	-55.660378
4948.242188	-57.480064
4949.218750	-57.002159
4950.195312	-55.630360
4951.171875	-55.699490
4952.148438	-55.525219
4953.125000	-58.035629
4954.101562	-56.882061
4955.078125	-55.316139
4956.054688	-56.415768
4957.031250	-56.366756
4958.007812	-56.009563
4958.984375	-55.527279
4959.960938	-55.490395
4960.937500	-55.597271
4961.914062	-55.325397
4962.890625	-54.593254
4963.867188	-54.957664
4964.843750	-56.352188
4965.820312	-55.129070
4966.796875	-54.472351
4967.773438	-55.183987
4968.750000	-54.222321
4969.726562	-55.918751
4970.703125	-55.801731
4971.679688	-57.112587
4972.656250	-56.370110
4973.632812	-55.447685
4974.609375	-54.854061
4975.585938	-55.034222
4976.562500	-55.799885
4977.539062	-55.339520
4978.515625	-54.522808
4979.492188	-55.764721
4980.468750	-56.611256
4981.445312	-57.320473
4982.421875	-55.633217
4983.398438	-56.354546
4984.375000	-54.716709
4985.351562	-54.638493
4986.328125	-54.113380
4987.304688	-54.570892
4988.281250	-55.543552
4989.257812	-57.128380
4990.234375	-56.208736
4991.210938	-55.517334
4992.187500	-55.307144
4993.164062	-54.678902
4994.140625	-52.488476
4995.117188	-56.270000
4996.093750	-55.590107
4997.070312	-52.550648
4998.046875	-55.041557
4999.023438	-54.017803
5000.000000	-54.730995
5000.976562	-54.887646
5001.953125	-54.691029
5002.929688	-54.155277
5003.906250	-56.014530
5004.882812	-54.873779
5005.859375	-53.872524
5006.835938	-53.835705
5007.812500	-54.656746
5008.789062	-54.387054
5009.765625	-53.234531
5010.742188	-54.658882
5011.718750	-53.934654
5012.695312	-54.131477
5013.671875	-53.966209
5014.648438	-53.400597
5015.625000	-53.826332
5016.601562	-54.284992
5017.578125	-54.631699
5018.554688	-53.890316
5019.531250	-54.174393
5020.507812	-52.556755
5021.484375	-53.521294
5022.460938	-52.763603
5023.437500	-52.514355
5024.414062	-53.336300
5025.390625	-54.016960
5026.367188	-55.075130
5027.343750	-52.989025
5028.320312	-53.139370
5029.296875	-53.101181
5030.273438	-53.722248
5031.250000	-54.336838
5032.226562	-53.476471
5033.203125	-52.589691
5034.179688	-53.224609
5035.156250	-53.852493
5036.132812	-52.946125
5037.109375	-52.303879
5038.085938	-51.389759
5039.062500	-54.113075
5040.039062	-52.998890
5041.015625	-52.723251
5041.992188	-53.595535
5042.968750	-52.519711
5043.945312	-53.430141
5044.921875	-53.770893
5045.898438	-53.041637
5046.875000	-51.737068
5047.851562	-53.287861
5048.828125	-53.237625
5049.804688	-52.287449
5050.781250	-51.904736
5051.757812	-51.416599
5052.734375	-52.363941
5053.710938	-52.217506
5054.687500	-51.899055
5055.664062	-50.267944
5056.640625	-51.417122
5057.617188	-50.913303
5058.593750	-52.425198
5059.570312	-52.523808
5060.546875	-52.632824
5061.523438	-51.711182
5062.500000	-51.953495
5063.476562	-51.484043
5064.453125	-51.297401
5065.429688	-52.887016
5066.406250	-50.557499
5067.382812	-49.930248
5068.359375	-50.422070
5069.335938	-51.692471
5070.312500	-51.465797
5071.289062	-51.903336
5072.265625	-53.256851
5073.242188	-51.602215
5074.218750	-50.874947
5075.195312	-49.355431
5076.171875	-49.516632
5077.148438	-51.335300
5078.125000	-53.258228
5079.101562	-51.668343
5080.078125	-49.904411
5081.054688	-50.458023
5082.031250	-50.191086
5083.007812	-51.092068
5083.984375	-50.764488
5084.960938	-50.989536
5085.937500	-50.635769
5086.914062	-51.754601
5087.890625	-51.490940
5088.867188	-51.467197
5089.843750	-51.298538
5090.820312	-50.282379
5091.796875	-50.175354
5092.773438	-51.894913
5093.750000	-50.583511
5094.726562	-50.347019
5095.703125	-50.965160
5096.679688	-49.935375
5097.656250	-48.831871
5098.632812	-49.231133
5099.609375	-48.372211
5100.585938	-50.768139
5101.562500	-49.934261
5102.539062	-49.846775
5103.515625	-51.250088
5104.492188	-49.818741
5105.468750	-49.439674
5106.445312	-50.408245
5107.421875	-50.496166
5108.398438	-48.414272
5109.375000	-49.014633
5110.351562	-49.173340
5111.328125	-48.924282
5112.304688	-49.466789
5113.281250	-48.020969
5114.257812	-50.054184
5115.234375	-49.446766
5116.210938	-47.513966
5117.187500	-49.676022
5118.164062	-48.933052
5119.140625	-48.495995
5120.117188	-48.594322
5121.093750	-49.162468
5122.070312	-48.924419
5123.046875	-49.115395
5124.023438	-48.662704
5125.000000	-50.268639
5125.976562	-48.069302
5126.953125	-48.542313
5127.929688	-49.508633
5128.906250	-49.385208
5129.882812	-47.298851
5130.859375	-46.975006
5131.835938	-46.632702
5132.812500	-47.618031
5133.789062	-48.510784
5134.765625	-48.920994
5135.742188	-48.581192
5136.718750	-50.746716
5137.695312	-50.939781
5138.671875	-49.504333
5139.648438	-47.904961
5140.625000	-47.900887
5141.601562	-48.347038
5142.578125	-48.467110
5143.554688	-47.557755
5144.531250	-47.246277
5145.507812	-48.979958
5146.484375	-47.205296
5147.460938	-47.804901
5148.437500	-48.954414
5149.414062	-47.624729
5150.390625	-48.472580
5151.367188	-48.894279
5152.343750	-47.194633
5153.320312	-48.529701
5154.296875	-49.061184
5155.273438	-45.854641
5156.250000	-47.749851
5157.226562	-46.710365
5158.203125	-47.211430
5159.179688	-48.450947
5160.156250	-48.079704
5161.132812	-48.514198
5162.109375	-47.347767
5163.085938	-46.346382
5164.062500	-47.046463
5165.039062	-48.726681
5166.015625	-48.901775
5166.992188	-48.379818
5167.968750	-46.840744
5168.945312	-48.208256
5169.921875	-47.855431
5170.898438	-47.202236
5171.875000	-47.611095
5172.851562	-47.325108
5173.828125	-46.484634
5174.804688	-47.690594
5175.781250	-47.545387
5176.757812	-47.731129
5177.734375	-46.876461
5178.710938	-48.003227
5179.687500	-48.095757
5180.664062	-49.059647
5181.640625	-48.097439
5182.617188	-48.126053
5183.593750	-48.754364
5184.570312	-48.276714
5185.546875	-47.868240
5186.523438	-46.862728
5187.500000	-48.233208
5188.476562	-47.502510
5189.453125	-48.259827
5190.429688	-48.092068
5191.406250	-47.500725
5192.382812	-46.692204
5193.359375	-47.299358
5194.335938	-48.223686
5195.312500	-48.270252
5196.289062	-47.682026
5197.265625	-47.093082
5198.242188	-47.514610
5199.218750	-47.247562
5200.195312	-47.832886
5201.171875	-47.152836
5202.148438	-48.378738
5203.125000	-48.955826
5204.101562	-48.141338
5205.078125	-46.552662
5206.054688	-48.264416
5207.031250	-49.284645
5208.007812	-50.196762
5208.984375	-50.140232
5209.960938	-49.876442
5210.937500	-49.568695
5211.914062	-48.862591
5212.890625	-48.094402
5213.867188	-48.497299
5214.843750	-49.575314
5215.820312	-49.574577
5216.796875	-48.930264
5217.773438	-49.482597
5218.750000	-48.767677
5219.726562	-49.506927
5220.703125	-50.452656
5221.679688	-49.771458
5222.656250	-49.786568
5223.632812	-50.383381
5224.609375	-50.662014
5225.585938	-50.433056
5226.562500	-50.885712
5227.539062	-49.634747
5228.515625	-49.689228
5229.492188	-50.190441
5230.468750	-49.606144
5231.445312	-47.481060
5232.421875	-49.845409
5233.398438	-49.815990
5234.375000	-52.638828
5235.351562	-50.636959
5236.328125	-51.882252
5237.304688	-51.166122
5238.281250	-49.900211
5239.257812	-50.427837
5240.234375	-50.486469
5241.210938	-53.121559
5242.187500	-51.623211
5243.164062	-51.868881
5244.140625	-52.577793
5245.117188	-49.935780
5246.093750	-51.476562
5247.070312	-51.853947
5248.046875	-52.233276
5249.023438	-51.690521
5250.000000	-51.786762
5250.976562	-51.270279
5251.953125	-52.426453
5252.929688	-53.013821
5253.906250	-53.498150
5254.882812	-51.870388
5255.859375	-51.049461
5256.835938	-51.979927
5257.812500	-51.077366
5258.789062	-51.879940
5259.765625	-52.324387
5260.742188	-52.463238
5261.718750	-52.221088
5262.695312	-51.890469
5263.671875	-52.307167
5264.648438	-53.190372
5265.625000	-52.969616
5266.601562	-53.487209
5267.578125	-54.248528
5268.554688	-54.443714
5269.531250	-53.767353
5270.507812	-54.623997
5271.484375	-54.585205
5272.460938	-54.005318
5273.437500	-53.089062
5274.414062	-53.956577
5275.390625	-54.493458
5276.367188	-55.144463
5277.343750	-56.898067
5278.320312	-53.293129
5279.296875	-54.306683
5280.273438	-53.403111
5281.250000	-53.091080
5282.226562	-53.101440
5283.203125	-52.282913
5284.179688	-52.901169
5285.156250	-53.256111
5286.132812	-54.464684
5287.109375	-52.886051
5288.085938	-55.419769
5289.062500	-54.434353
5290.039062	-54.627251
5291.015625	-53.063396
5291.992188	-53.831577
5292.968750	-53.897156
5293.945312	-54.732121
5294.921875	-55.505318
5295.898438	-55.539089
5296.875000	-54.534580
5297.851562	-56.018497
5298.828125	-54.891464
5299.804688	-54.236134
5300.781250	-55.762932
5301.757812	-54.422298
5302.734375	-53.886669
5303.710938	-55.280796
5304.687500	-55.536976
5305.664062	-53.802425
5306.640625	-55.858124
5307.617188	-55.138031
5308.593750	-55.163773
5309.570312	-54.952572
5310.546875	-54.001904
5311.523438	-55.309299
5312.500000	-54.381378
5313.476562	-54.610096
5314.453125	-53.668182
5315.429688	-53.930557
5316.406250	-54.042255
5317.382812	-55.355354
5318.359375	-56.164890
5319.335938	-55.151768
5320.312500	-54.815033
5321.289062	-55.915932
5322.265625	-54.938583
5323.242188	-54.868320
5324.218750	-54.440624
5325.195312	-55.449329
5326.171875	-56.956680
5327.148438	-56.323753
5328.125000	-56.059940
5329.101562	-55.531055
5330.078125	-54.851349
5331.054688	-54.634571
5332.031250	-55.935528
5333.007812	-57.323254
5333.984375	-54.657497
5334.960938	-54.516388
5335.937500	-55.142864
5336.914062	-55.293545
5337.890625	-54.787235
5338.867188	-56.675400
5339.843750	-55.542625
5340.820312	-55.843971
5341.796875	-56.030102
5342.773438	-55.254997
5343.750000	-54.659519
5344.726562	-53.760338
5345.703125	-53.851841
5346.679688	-56.193329
5347.656250	-56.205940
5348.632812	-57.329624
5349.609375	-55.881870
5350.585938	-55.679218
5351.562500	-55.075832
5352.539062	-56.785656
5353.515625	-56.370464
5354.492188	-57.000648
5355.468750	-57.662949
5356.445312	-56.767567
5357.421875	-56.161137
5358.398438	-57.310055
5359.375000	-56.268612
5360.351562	-56.930393
5361.328125	-55.468708
5362.304688	-56.020168
5363.281250	-55.529972
5364.257812	-56.655792
5365.234375	-55.093014
5366.210938	-55.571911
5367.187500	-55.628174
5368.164062	-53.603703
5369.140625	-54.321846
5370.117188	-55.544720
5371.093750	-56.025059
5372.070312	-56.247665
5373.046875	-55.881603
5374.023438	-57.277523
5375.000000	-56.192802
5375.976562	-54.877209
5376.953125	-56.422909
5377.929688	-55.810986
5378.906250	-56.616302
5379.882812	-56.522869
5380.859375	-56.298546
5381.835938	-55.719208
5382.812500	-56.819683
5383.789062	-56.283997
5384.765625	-56.441658
5385.742188	-55.816299
5386.718750	-55.680065
5387.695312	-54.683613
5388.671875	-55.815445
5389.648438	-54.970905
5390.625000	-55.262486
5391.601562	-55.470783
5392.578125	-55.657463
5393.554688	-56.505733
5394.531250	-55.848961
5395.507812	-55.871780
5396.484375	-55.917156
5397.460938	-56.007431
5398.437500	-56.897243
5399.414062	-55.672737
5400.390625	-56.176350
5401.367188	-56.825256
5402.343750	-55.719917
5403.320312	-57.131763
5404.296875	-55.922539
5405.273438	-55.842781
5406.250000	-57.399258
5407.226562	-55.643459
5408.203125	-56.075031
5409.179688	-56.175262
5410.156250	-56.065048
5411.132812	-55.976158
5412.109375	-55.169888
5413.085938	-56.421951
5414.062500	-54.921814
5415.039062	-54.905956
5416.015625	-55.352798
5416.992188	-55.138897
5417.968750	-53.957211
5418.945312	-54.964218
5419.921875	-55.802204
5420.898438	-55.997692
5421.875000	-55.736095
5422.851562	-55.333572
5423.828125	-56.610291
5424.804688	-56.267948
5425.781250	-55.021049
5426.757812	-55.637775
5427.734375	-56.988319
5428.710938	-55.722607
5429.687500	-55.740398
5430.664062	-55.142910
5431.640625	-54.892990
5432.617188	-55.586994
5433.593750	-55.813271
5434.570312	-56.114864
5435.546875	-55.515278
5436.523438	-56.135166
5437.500000	-56.113201
5438.476562	-55.956039
5439.453125	-56.536724
5440.429688	-55.324459
5441.406250	-54.893242
5442.382812	-55.789227
5443.359375	-55.751965
5444.335938	-54.073151
5445.312500	-55.383656
5446.289062	-55.199532
5447.265625	-54.573837
5448.242188	-55.088646
5449.218750	-53.593842
5450.195312	-55.707664
5451.171875	-55.842621
5452.148438	-57.106583
5453.125000	-55.518665
5454.101562	-54.173569
5455.078125	-55.764843
5456.054688	-55.070175
5457.031250	-56.113777
5458.007812	-55.099361
5458.984375	-54.947144
5459.960938	-54.559837
5460.937500	-55.258396
5461.914062	-55.222927
5462.890625	-56.481449
5463.867188	-54.723286
5464.843750	-54.414730
5465.820312	-54.464561
5466.796875	-56.554295
5467.773438	-55.736217
5468.750000	-54.970322
5469.726562	-55.162037
5470.703125	-54.926369
5471.679688	-54.240025
5472.656250	-54.924129
5473.632812	-54.585636
5474.609375	-57.262573
5475.585938	-56.125027
5476.562500	-55.144650
5477.539062	-55.603790
5478.515625	-55.967163
5479.492188	-56.174900
5480.468750	-54.422733
5481.445312	-54.832325
5482.421875	-54.334099
5483.398438	-54.931011
5484.375000	-55.288086
5485.351562	-54.684937
5486.328125	-56.197800
5487.304688	-55.602211
5488.281250	-55.764893
5489.257812	-55.913372
5490.234375	-54.831585
5491.210938	-56.325184
5492.187500	-56.044189
5493.164062	-56.288490
5494.140625	-55.685646
5495.117188	-54.409668
5496.093750	-54.325562
5497.070312	-56.458035
5498.046875	-55.616673
5499.023438	-56.701893
5500.000000	-55.276463
5500.976562	-54.808670
5501.953125	-53.363701
5502.929688	-53.384151
5503.906250	-54.695675
5504.882812	-56.244411
5505.859375	-53.932594
5506.835938	-53.197235
5507.812500	-53.483826
5508.789062	-54.363209
5509.765625	-54.267811
5510.742188	-54.797756
5511.718750	-54.280357
5512.695312	-52.962002
5513.671875	-54.788696
5514.648438	-54.148735
5515.625000	-54.240932
5516.601562	-54.748585
5517.578125	-54.923439
5518.554688	-53.758167
5519.531250	-54.608700
5520.507812	-54.023201
5521.484375	-54.603741
5522.460938	-53.529419
5523.437500	-55.509800
5524.414062	-55.328808
5525.390625	-54.308674
5526.367188	-54.563274
5527.343750	-53.615784
5528.320312	-53.413445
5529.296875	-52.618282
5530.273438	-52.914268
5531.250000	-53.961716
5532.226562	-51.862148
5533.203125	-52.382153
5534.179688	-52.559395
5535.156250	-52.317635
5536.132812	-54.322716
5537.109375	-53.956013
5538.085938	-54.196964
5539.062500	-52.206444
5540.039062	-53.053650
5541.015625	-55.040730
5541.992188	-53.416512
5542.968750	-53.982513
5543.945312	-54.309834
5544.921875	-51.744888
5545.898438	-51.501091
5546.875000	-52.379391
5547.851562	-51.388237
5548.828125	-52.727364
5549.804688	-52.498322
5550.781250	-52.425400
5551.757812	-51.877003
5552.734375	-50.189632
5553.710938	-51.510239
5554.687500	-52.652287
5555.664062	-53.011791
5556.640625	-54.664604
5557.617188	-51.726112
5558.593750	-52.109451
5559.570312	-51.471828
5560.546875	-50.270634
5561.523438	-52.211777
5562.500000	-53.093399
5563.476562	-52.144466
5564.453125	-51.958603
5565.429688	-53.630653
5566.406250	-51.060322
5567.382812	-51.744244
5568.359375	-50.691837
5569.335938	-52.877445
5570.312500	-52.059555
5571.289062	-51.153175
5572.265625	-50.646515
5573.242188	-51.053638
5574.218750	-51.782360
5575.195312	-51.312595
5576.171875	-51.786755
5577.148438	-49.572536
5578.125000	-51.063637
5579.101562	-51.440029
5580.078125	-50.505219
5581.054688	-50.704414
5582.031250	-50.806942
5583.007812	-50.146309
5583.984375	-50.340523
5584.960938	-48.938366
5585.937500	-49.174767
5586.914062	-49.219559
5587.890625	-50.387516
5588.867188	-51.747372
5589.843750	-50.702003
5590.820312	-50.842274
5591.796875	-50.053013
5592.773438	-49.699574
5593.750000	-50.611027
5594.726562	-48.663784
5595.703125	-49.121826
5596.679688	-49.416401
5597.656250	-50.214142
5598.632812	-49.357353
5599.609375	-49.681938
5600.585938	-48.893974
5601.562500	-49.021652
5602.539062	-49.166767
5603.515625	-48.545097
5604.492188	-48.774807
5605.468750	-49.201290
5606.445312	-47.478039
5607.421875	-48.826279
5608.398438	-49.124451
5609.375000	-48.138195
5610.351562	-46.807060
5611.328125	-48.371525
5612.304688	-48.134098
5613.281250	-49.167290
5614.257812	-50.300411
5615.234375	-50.141823
5616.210938	-50.672665
5617.187500	-47.708698
5618.164062	-49.210560
5619.140625	-47.519642
5620.117188	-47.427883
5621.093750	-47.693607
5622.070312	-48.004276
5623.046875	-47.977554
5624.023438	-46.853527
5625.000000	-48.406353
5625.976562	-46.293480
5626.953125	-47.919872
5627.929688	-47.463596
5628.906250	-48.390385
5629.882812	-47.769867
5630.859375	-47.332394
5631.835938	-48.779255
5632.812500	-49.173912
5633.789062	-48.381565
5634.765625	-48.902046
5635.742188	-48.277092
5636.718750	-47.461525
5637.695312	-48.437943
5638.671875	-48.897659
5639.648438	-48.764603
5640.625000	-47.529919
5641.601562	-47.830223
5642.578125	-46.684998
5643.554688	-47.576130
5644.531250	-46.731663
5645.507812	-47.564926
5646.484375	-47.167873
5647.460938	-47.110519
5648.437500	-48.159920
5649.414062	-47.193443
5650.390625	-47.152462
5651.367188	-48.211178
5652.343750	-48.302517
5653.320312	-48.575184
5654.296875	-46.591770
5655.273438	-46.812447
5656.250000	-47.066597
5657.226562	-46.954250
5658.203125	-46.748489
5659.179688	-46.139927
5660.156250	-48.391216
5661.132812	-49.039806
5662.109375	-47.361355
5663.085938	-47.094490
5664.062500	-46.936237
5665.039062	-48.246487
5666.015625	-47.815895
5666.992188	-46.409843
5667.968750	-47.045315
5668.945312	-48.084698
5669.921875	-48.353706
5670.898438	-46.803066
5671.875000	-48.286732
5672.851562	-48.275776
5673.828125	-47.901993
5674.804688	-47.596226
5675.781250	-47.694069
5676.757812	-46.015610
5677.734375	-45.489124
5678.710938	-46.528358
5679.687500	-48.207623
5680.664062	-48.932217
5681.640625	-48.541142
5682.617188	-48.029404
5683.593750	-46.765675
5684.570312	-47.200191
5685.546875	-48.604462
5686.523438	-48.282032
5687.500000	-47.901989
5688.476562	-47.723656
5689.453125	-49.245934
5690.429688	-48.784588
5691.406250	-48.120331
5692.382812	-47.783657
5693.359375	-48.331863
5694.335938	-49.179913
5695.312500	-48.974720
5696.289062	-48.909149
5697.265625	-47.845505
5698.242188	-46.283562
5699.218750	-46.522453
5700.195312	-46.795074
5701.171875	-48.546974
5702.148438	-49.461235
5703.125000	-49.360947
5704.101562	-48.829407
5705.078125	-48.327713
5706.054688	-50.058876
5707.031250	-49.385033
5708.007812	-47.653488
5708.984375	-47.923153
5709.960938	-47.926865
5710.937500	-47.985100
5711.914062	-48.703896
5712.890625	-48.558834
5713.867188	-48.439014
5714.843750	-48.972984
5715.820312	-47.472893
5716.796875	-48.157703
5717.773438	-47.826542
5718.750000	-48.550583
5719.726562	-48.066593
5720.703125	-48.896637
5721.679688	-49.830772
5722.656250	-50.480515
5723.632812	-50.883923
5724.609375	-51.408985
5725.585938	-50.728996
5726.562500	-50.253136
5727.539062	-50.183170
5728.515625	-48.848309
5729.492188	-49.097549
5730.468750	-49.101284
5731.445312	-49.460011
5732.421875	-49.386810
5733.398438	-49.501667
5734.375000	-49.149044
5735.351562	-47.925636
5736.328125	-48.782959
5737.304688	-49.465843
5738.281250	-51.219769
5739.257812	-50.836182
5740.234375	-49.582634
5741.210938	-50.381462
5742.187500	-51.112915
5743.164062	-49.294106
5744.140625	-51.048656
5745.117188	-50.851437
5746.093750	-51.811790
5747.070312	-52.975895
5748.046875	-52.180592
5749.023438	-53.448746
5750.000000	-52.850006
5750.976562	-51.813641
5751.953125	-51.050415
5752.929688	-51.516235
5753.906250	-52.873177
5754.882812	-50.723068
5755.859375	-51.090023
5756.835938	-51.402588
5757.812500	-52.084522
5758.789062	-50.525455
5759.765625	-50.156948
5760.742188	-50.062531
5761.718750	-52.608292
5762.695312	-53.033688
5763.671875	-54.009323
5764.648438	-51.827019
5765.625000	-51.990875
5766.601562	-52.856937
5767.578125	-51.782036
5768.554688	-52.626869
5769.531250	-52.571987
5770.507812	-54.250675
5771.484375	-53.329983
5772.460938	-53.058479
5773.437500	-53.807793
5774.414062	-55.006332
5775.390625	-53.619473
5776.367188	-52.423542
5777.343750	-53.920887
5778.320312	-53.306854
5779.296875	-53.729275
5780.273438	-52.516163
5781.250000	-52.432533
5782.226562	-53.627060
5783.203125	-55.070690
5784.179688	-53.926022
5785.156250	-54.490177
5786.132812	-54.249062
5787.109375	-52.625546
5788.085938	-53.191166
5789.062500	-54.055431
5790.039062	-53.967087
5791.015625	-53.444679
5791.992188	-53.413918
5792.968750	-53.521496
5793.945312	-53.514439
5794.921875	-53.855106
5795.898438	-55.088146
5796.875000	-54.798012
5797.851562	-54.023041
5798.828125	-54.608135
5799.804688	-54.131836
5800.781250	-56.312023
5801.757812	-54.176941
5802.734375	-56.581226
5803.710938	-55.540829
5804.687500	-53.773903
5805.664062	-54.768406
5806.640625	-54.623016
5807.617188	-54.859528
5808.593750	-56.011646
5809.570312	-54.395271
5810.546875	-53.442329
5811.523438	-54.617352
5812.500000	-55.715984
5813.476562	-55.607677
5814.453125	-54.315147
5815.429688	-53.311928
5816.406250	-54.930935
5817.382812	-54.601078
5818.359375	-54.963203
5819.335938	-53.843716
5820.312500	-53.966637
5821.289062	-55.064777
5822.265625	-54.391014
5823.242188	-55.641003
5824.218750	-54.910473
5825.195312	-54.310234
5826.171875	-55.444103
5827.148438	-56.706757
5828.125000	-56.285789
5829.101562	-55.837055
5830.078125	-55.735203
5831.054688	-54.318508
5832.031250	-55.976330
5833.007812	-55.418842
5833.984375	-54.337250
5834.960938	-56.981510
5835.937500	-55.632648
5836.914062	-55.028076
5837.890625	-56.283451
5838.867188	-56.257423
5839.843750	-56.164425
5840.820312	-56.512772
5841.796875	-55.881729
5842.773438	-54.468445
5843.750000	-55.217422
5844.726562	-55.619350
5845.703125	-55.277676
5846.679688	-55.219032
5847.656250	-56.325195
5848.632812	-56.228981
5849.609375	-55.953503
5850.585938	-55.474812
5851.562500	-55.556435
5852.539062	-57.143906
5853.515625	-56.483181
5854.492188	-56.219700
5855.468750	-55.542507
5856.445312	-54.801556
5857.421875	-55.373455
5858.398438	-54.785900
5859.375000	-55.370861
5860.351562	-56.743793
5861.328125	-56.143097
5862.304688	-54.365177
5863.281250	-55.737156
5864.257812	-54.669159
5865.234375	-56.052170
5866.210938	-56.233837
5867.187500	-55.102226
5868.164062	-55.365406
5869.140625	-54.801434
5870.117188	-54.849209
5871.093750	-57.151363
5872.070312	-55.813400
5873.046875	-56.686230
5874.023438	-55.345222
5875.000000	-55.296276
5875.976562	-55.782600
5876.953125	-55.595394
5877.929688	-54.472374
5878.906250	-55.025562
5879.882812	-56.420261
5880.859375	-56.221828
5881.835938	-55.951950
5882.812500	-56.206657
5883.789062	-54.850906
5884.765625	-54.981358
5885.742188	-54.123306
5886.718750	-53.748325
5887.695312	-55.569683
5888.671875	-55.646805
5889.648438	-56.241539
5890.625000	-56.471931
5891.601562	-55.862408
5892.578125	-54.425457
5893.554688	-55.364613
5894.531250	-56.334213
5895.507812	-53.849731
5896.484375	-54.538292
5897.460938	-54.502571
5898.437500	-55.527435
5899.414062	-53.720314
5900.390625	-54.448181
5901.367188	-54.296761
5902.343750	-55.696667
5903.320312	-56.110798
5904.296875	-55.824310
5905.273438	-55.013119
5906.250000	-54.789421
5907.226562	-56.562340
5908.203125	-55.897129
5909.179688	-57.476273
5910.156250	-55.320160
5911.132812	-55.013264
5912.109375	-55.841347
5913.085938	-56.043484
5914.062500	-54.831226
5915.039062	-55.762325
5916.015625	-55.410206
5916.992188	-55.625519
5917.968750	-55.078014
5918.945312	-54.335125
5919.921875	-54.071365
5920.898438	-56.182907
5921.875000	-54.642792
5922.851562	-54.914528
5923.828125	-54.081223
5924.804688	-55.988419
5925.781250	-56.512341
5926.757812	-55.038517
5927.734375	-54.330605
5928.710938	-53.292324
5929.687500	-56.225807
5930.664062	-56.297401
5931.640625	-56.474152
5932.617188	-56.617134
5933.593750	-55.700382
5934.570312	-55.632202
5935.546875	-55.625099
5936.523438	-54.455521
5937.500000	-55.578667
5938.476562	-56.206726
5939.453125	-55.062389
5940.429688	-54.952919
5941.406250	-55.360535
5942.382812	-53.135986
5943.359375	-52.028942
5944.335938	-53.259064
5945.312500	-54.590881
5946.289062	-56.654602
5947.265625	-55.741417
5948.242188	-54.742878
5949.218750	-55.210808
5950.195312	-54.027473
5951.171875	-55.006786
5952.148438	-54.476131
5953.125000	-54.959972
5954.101562	-54.383156
5955.078125	-54.478233
5956.054688	-54.100208
5957.031250	-53.438641
5958.007812	-55.394878
5958.984375	-55.922310
5959.960938	-53.479439
5960.937500	-52.594883
5961.914062	-54.093651
5962.890625	-54.476227
5963.867188	-53.545486
5964.843750	-55.049282
5965.820312	-55.711338
5966.796875	-54.953491
5967.773438	-52.698830
5968.750000	-53.739246
5969.726562	-53.500160
5970.703125	-52.900688
5971.679688	-53.943306
5972.656250	-54.488457
5973.632812	-54.040730
5974.609375	-53.419029
5975.585938	-53.001328
5976.562500	-52.633846
5977.539062	-53.862072
5978.515625	-53.863785
5979.492188	-53.499260
5980.468750	-53.547150
5981.445312	-52.128590
5982.421875	-51.830307
5983.398438	-52.692848
5984.375000	-54.661621
5985.351562	-53.893436
5986.328125	-54.053173
5987.304688	-54.477936
5988.281250	-53.397331
5989.257812	-54.474464
5990.234375	-55.553368
5991.210938	-53.690281
5992.187500	-53.682373
5993.164062	-53.711903
5994.140625	-51.945385
5995.117188	-51.661934
5996.093750	-52.204590
5997.070312	-51.678905
5998.046875	-52.408756
5999.023438	-52.888680
6000.000000	-51.255619
6000.976562	-53.143299
6001.953125	-52.066074
6002.929688	-52.802078
6003.906250	-52.860641
6004.882812	-52.279369
6005.859375	-53.798859
6006.835938	-52.919979
6007.812500	-53.729847
6008.789062	-53.819138
6009.765625	-52.781036
6010.742188	-52.410236
6011.718750	-52.034054
6012.695312	-50.071232
6013.671875	-50.874161
6014.648438	-51.012875
6015.625000	-51.114193
6016.601562	-50.836021
6017.578125	-52.356991
6018.554688	-51.429512
6019.531250	-51.842693
6020.507812	-51.136734
6021.484375	-52.349808
6022.460938	-51.202103
6023.437500	-49.663509
6024.414062	-51.919567
6025.390625	-52.145695
6026.367188	-51.762138
6027.343750	-49.296005
6028.320312	-49.635929
6029.296875	-49.887566
6030.273438	-50.229347
6031.250000	-49.718929
6032.226562	-51.823181
6033.203125	-51.019958
6034.179688	-50.560280
6035.156250	-49.986500
6036.132812	-50.488327
6037.109375	-50.745132
6038.085938	-51.435520
6039.062500	-51.598122
6040.039062	-52.648579
6041.015625	-51.343124
6041.992188	-49.314503
6042.968750	-48.797791
6043.945312	-49.099548
6044.921875	-49.378735
6045.898438	-49.557983
6046.875000	-49.134274
6047.851562	-50.336452
6048.828125	-50.788078
6049.804688	-52.225040
6050.781250	-50.758694
6051.757812	-50.154644
6052.734375	-51.104691
6053.710938	-52.061359
6054.687500	-50.416721
6055.664062	-52.207943
6056.640625	-48.934944
6057.617188	-47.954437
6058.593750	-48.409985
6059.570312	-49.873524
6060.546875	-51.777855
6061.523438	-50.549393
6062.500000	-49.444866
6063.476562	-49.345676
6064.453125	-49.301517
6065.429688	-48.774437
6066.406250	-47.081192
6067.382812	-50.273735
6068.359375	-48.622406
6069.335938	-47.515987
6070.312500	-49.536858
6071.289062	-47.884518
6072.265625	-49.055580
6073.242188	-48.249260
6074.218750	-48.422497
6075.195312	-48.589882
6076.171875	-47.376312
6077.148438	-50.062653
6078.125000	-50.011761
6079.101562	-49.961884
6080.078125	-47.062511
6081.054688	-47.413158
6082.031250	-49.122746
6083.007812	-47.867622
6083.984375	-47.863785
6084.960938	-48.854675
6085.937500	-48.200222
6086.914062	-48.926956
6087.890625	-49.349079
6088.867188	-48.945961
6089.843750	-48.113407
6090.820312	-47.580727
6091.796875	-48.548046
6092.773438	-48.644669
6093.750000	-48.278423
6094.726562	-48.443367
6095.703125	-48.988274
6096.679688	-47.289986
6097.656250	-46.924358
6098.632812	-46.552921
6099.609375	-47.465961
6100.585938	-47.591053
6101.562500	-49.030544
6102.539062	-47.800991
6103.515625	-47.589584
6104.492188	-47.834602
6105.468750	-48.772026
6106.445312	-48.995438
6107.421875	-48.129929
6108.398438	-48.790039
6109.375000	-46.680260
6110.351562	-47.632969
6111.328125	-47.784218
6112.304688	-48.063316
6113.281250	-48.593548
6114.257812	-47.909470
6115.234375	-47.228355
6116.210938	-47.205452
6117.187500	-48.660736
6118.164062	-47.546364
6119.140625	-46.084175
6120.117188	-46.995033
6121.093750	-46.443386
6122.070312	-47.401501
6123.046875	-46.853176
6124.023438	-45.662167
6125.000000	-46.431755
6125.976562	-48.006138
6126.953125	-46.851173
6127.929688	-47.027485
6128.906250	-48.120476
6129.882812	-47.819168
6130.859375	-47.611290
6131.835938	-47.206146
6132.812500	-47.822456
6133.789062	-46.557549
6134.765625	-47.203991
6135.742188	-47.145126
6136.718750	-47.720844
6137.695312	-47.711403
6138.671875	-47.154449
6139.648438	-48.391071
6140.625000	-48.847492
6141.601562	-46.956837
6142.578125	-47.144814
6143.554688	-47.477940
6144.531250	-47.954231
6145.507812	-46.794567
6146.484375	-46.189667
6147.460938	-47.289009
6148.437500	-47.138458
6149.414062	-46.241417
6150.390625	-47.275417
6151.367188	-46.566036
6152.343750	-48.273125
6153.320312	-47.699150
6154.296875	-48.429684
6155.273438	-47.442196
6156.250000	-46.598408
6157.226562	-47.267666
6158.203125	-48.057487
6159.179688	-47.501263
6160.156250	-47.833710
6161.132812	-47.995827
6162.109375	-47.637146
6163.085938	-48.588795
6164.062500	-48.582607
6165.039062	-47.538254
6166.015625	-46.881081
6166.992188	-47.981113
6167.968750	-47.650040
6168.945312	-47.965298
6169.921875	-47.513931
6170.898438	-48.180668
6171.875000	-48.358334
6172.851562	-47.275688
6173.828125	-46.987961
6174.804688	-47.160664
6175.781250	-47.381882
6176.757812	-47.001736
6177.734375	-47.105541
6178.710938	-45.207470
6179.687500	-45.635841
6180.664062	-46.805069
6181.640625	-47.385483
6182.617188	-48.197308
6183.593750	-46.571541
6184.570312	-47.933239
6185.546875	-48.474873
6186.523438	-48.192566
6187.500000	-47.975887
6188.476562	-47.971169
6189.453125	-46.263123
6190.429688	-48.488518
6191.406250	-48.199936
6192.382812	-48.834900
6193.359375	-47.896530
6194.335938	-49.475323
6195.312500	-48.112793
6196.289062	-48.590755
6197.265625	-48.447815
6198.242188	-48.286709
6199.218750	-47.711693
6200.195312	-48.268078
6201.171875	-48.770302
6202.148438	-48.488583
6203.125000	-49.008636
6204.101562	-48.470562
6205.078125	-48.205688
6206.054688	-48.689342
6207.031250	-49.003860
6208.007812	-49.760551
6208.984375	-49.269432
6209.960938	-49.418133
6210.937500	-49.632690
6211.914062	-48.957657
6212.890625	-48.993050
6213.867188	-49.858570
6214.843750	-51.189335
6215.820312	-49.545078
6216.796875	-49.370743
6217.773438	-50.530586
6218.750000	-51.627819
6219.726562	-49.343109
6220.703125	-49.554256
6221.679688	-51.287838
6222.656250	-50.599518
6223.632812	-47.631413
6224.609375	-48.437016
6225.585938	-50.309776
6226.562500	-50.200897
6227.539062	-49.536610
6228.515625	-49.355289
6229.492188	-51.054237
6230.468750	-50.647923
6231.445312	-50.866703
6232.421875	-51.106682
6233.398438	-50.663269
6234.375000	-51.765198
6235.351562	-51.942291
6236.328125	-51.866989
6237.304688	-53.038872
6238.281250	-51.446152
6239.257812	-52.158981
6240.234375	-51.437916
6241.210938	-51.518024
6242.187500	-52.380180
6243.164062	-52.253204
6244.140625	-51.361340
6245.117188	-53.464066
6246.093750	-52.168953
6247.070312	-51.051338
6248.046875	-50.732552
6249.023438	-50.254448
6250.000000	-51.094303
6250.976562	-52.012321
6251.953125	-52.092644
6252.929688	-52.500496
6253.906250	-52.127232
6254.882812	-50.335678
6255.859375	-52.581432
6256.835938	-53.274864
6257.812500	-52.761799
6258.789062	-52.025452
6259.765625	-51.644985
6260.742188	-53.578777
6261.718750	-53.373230
6262.695312	-53.094059
6263.671875	-53.006378
6264.648438	-55.083359
6265.625000	-52.680542
6266.601562	-52.611237
6267.578125	-50.887440
6268.554688	-51.982616
6269.531250	-53.706627
6270.507812	-53.082645
6271.484375	-51.800678
6272.460938	-53.363380
6273.437500	-53.087543
6274.414062	-55.114128
6275.390625	-54.250145
6276.367188	-54.455986
6277.343750	-52.888554
6278.320312	-52.721252
6279.296875	-54.119183
6280.273438	-52.942421
6281.250000	-54.212055
6282.226562	-53.029057
6283.203125	-52.760593
6284.179688	-52.224834
6285.156250	-53.511162
6286.132812	-53.502575
6287.109375	-52.450302
6288.085938	-53.484665
6289.062500	-51.858700
6290.039062	-52.420158
6291.015625	-52.751663
6291.992188	-53.204258
6292.968750	-52.717564
6293.945312	-53.643475
6294.921875	-52.811550
6295.898438	-54.542175
6296.875000	-53.181736
6297.851562	-52.364464
6298.828125	-53.606609
6299.804688	-52.945484
6300.781250	-53.775166
6301.757812	-54.571205
6302.734375	-55.107830
6303.710938	-53.874153
6304.687500	-53.837521
6305.664062	-54.399719
6306.640625	-54.721401
6307.617188	-54.473778
6308.593750	-55.009022
6309.570312	-52.523846
6310.546875	-52.538612
6311.523438	-53.465054
6312.500000	-52.843945
6313.476562	-52.686642
6314.453125	-53.711193
6315.429688	-53.759716
6316.406250	-54.012886
6317.382812	-54.598000
6318.359375	-55.433372
6319.335938	-53.366425
6320.312500	-53.151814
6321.289062	-53.381397
6322.265625	-53.390949
6323.242188	-52.843884
6324.218750	-52.771854
6325.195312	-52.227638
6326.171875	-53.849724
6327.148438	-55.027153
6328.125000	-54.319832
6329.101562	-55.721806
6330.078125	-55.028168
6331.054688	-54.862194
6332.031250	-54.922127
6333.007812	-53.622795
6333.984375	-53.208229
6334.960938	-53.778748
6335.937500	-54.431030
6336.914062	-54.278282
6337.890625	-53.443871
6338.867188	-53.316780
6339.843750	-54.344784
6340.820312	-54.766697
6341.796875	-55.436028
6342.773438	-55.239372
6343.750000	-55.050308
6344.726562	-54.049305
6345.703125	-55.288574
6346.679688	-55.754932
6347.656250	-55.211971
6348.632812	-52.851814
6349.609375	-52.052067
6350.585938	-53.309711
6351.562500	-53.542484
6352.539062	-56.214108
6353.515625	-54.060081
6354.492188	-53.857578
6355.468750	-54.817940
6356.445312	-55.264843
6357.421875	-55.529007
6358.398438	-56.021862
6359.375000	-55.395676
6360.351562	-54.118797
6361.328125	-55.417828
6362.304688	-56.195335
6363.281250	-54.081612
6364.257812	-54.391750
6365.234375	-53.270721
6366.210938	-52.497913
6367.187500	-53.716438
6368.164062	-53.976780
6369.140625	-53.891708
6370.117188	-55.470394
6371.093750	-54.447117
6372.070312	-53.744213
6373.046875	-54.152119
6374.023438	-53.324921
6375.000000	-53.692627
6375.976562	-53.524292
6376.953125	-54.720741
6377.929688	-53.688847
6378.906250	-53.486687
6379.882812	-53.368980
6380.859375	-53.241474
6381.835938	-54.027718
6382.812500	-52.761276
6383.789062	-54.180134
6384.765625	-53.496250
6385.742188	-52.451469
6386.718750	-54.123539
6387.695312	-52.816032
6388.671875	-53.577221
6389.648438	-53.851559
6390.625000	-54.257820
6391.601562	-54.487911
6392.578125	-53.336731
6393.554688	-51.788761
6394.531250	-53.277557
6395.507812	-54.383057
6396.484375	-52.248886
6397.460938	-52.615448
6398.437500	-52.962837
6399.414062	-53.112709
6400.390625	-52.235538
6401.367188	-51.894863
6402.343750	-53.911652
6403.320312	-54.106220
6404.296875	-53.723721
6405.273438	-52.421242
6406.250000	-52.072163
6407.226562	-54.356133
6408.203125	-52.623253
6409.179688	-52.306412
6410.156250	-54.177753
6411.132812	-52.603294
6412.109375	-53.269154
6413.085938	-52.668266
6414.062500	-54.418064
6415.039062	-53.897739
6416.015625	-54.141380
6416.992188	-52.781109
6417.968750	-53.223335
6418.945312	-53.896526
6419.921875	-52.891827
6420.898438	-52.279449
6421.875000	-53.408249
6422.851562	-53.527901
6423.828125	-53.196285
6424.804688	-53.458588
6425.781250	-52.990437
6426.757812	-53.550343
6427.734375	-52.150764
6428.710938	-51.113701
6429.687500	-51.423264
6430.664062	-51.645161
6431.640625	-51.502388
6432.617188	-51.295155
6433.593750	-52.791245
6434.570312	-53.528397
6435.546875	-51.370567
6436.523438	-51.213696
6437.500000	-51.549530
6438.476562	-51.929493
6439.453125	-52.101147
6440.429688	-51.568165
6441.406250	-51.886292
6442.382812	-53.931938
6443.359375	-52.604763
6444.335938	-52.810711
6445.312500	-51.784180
6446.289062	-51.860237
6447.265625	-51.863468
6448.242188	-52.283669
6449.218750	-51.781441
6450.195312	-53.502968
6451.171875	-52.806499
6452.148438	-52.174007
6453.125000	-51.047485
6454.101562	-51.704586
6455.078125	-51.871323
6456.054688	-51.505222
6457.031250	-52.304440
6458.007812	-52.065075
6458.984375	-52.593246
6459.960938	-52.635269
6460.937500	-53.371498
6461.914062	-52.479942
6462.890625	-49.375340
6463.867188	-49.804317
6464.843750	-51.546806
6465.820312	-52.376236
6466.796875	-51.382282
6467.773438	-51.920216
6468.750000	-51.339767
6469.726562	-51.048943
6470.703125	-51.606750
6471.679688	-52.774021
6472.656250	-52.452450
6473.632812	-51.394024
6474.609375	-49.505505
6475.585938	-52.162155
6476.562500	-51.801083
6477.539062	-50.394718
6478.515625	-50.618484
6479.492188	-51.572987
6480.468750	-52.351208
6481.445312	-52.327267
6482.421875	-51.708366
6483.398438	-51.918243
6484.375000	-52.038479
6485.351562	-51.465725
6486.328125	-51.418682
6487.304688	-50.867550
6488.281250	-50.811699
6489.257812	-48.965130
6490.234375	-50.304123
6491.210938	-51.254311
6492.187500	-51.548306
6493.164062	-50.975952
6494.140625	-51.401234
6495.117188	-52.847794
6496.093750	-51.161552
6497.070312	-50.686905
6498.046875	-51.895340
6499.023438	-52.822765
6500.000000	-51.547623
6500.976562	-51.209511
6501.953125	-51.001537
6502.929688	-51.313980
6503.906250	-51.746521
6504.882812	-52.698837
6505.859375	-51.256821
6506.835938	-50.605179
6507.812500	-50.461681
6508.789062	-51.149399
6509.765625	-52.223610
6510.742188	-52.282936
6511.718750	-51.424660
6512.695312	-52.012299
6513.671875	-51.382450
6514.648438	-50.460400
6515.625000	-51.739189
6516.601562	-52.055401
6517.578125	-50.950317
6518.554688	-51.336746
6519.531250	-50.417122
6520.507812	-52.516300
6521.484375	-51.842075
6522.460938	-51.739418
6523.437500	-51.166500
6524.414062	-50.497612
6525.390625	-51.207554
6526.367188	-51.067608
6527.343750	-51.185841
6528.320312	-51.427452
6529.296875	-51.140835
6530.273438	-50.674156
6531.250000	-51.835785
6532.226562	-51.132904
6533.203125	-51.503925
6534.179688	-50.774982
6535.156250	-50.898586
6536.132812	-50.644722
6537.109375	-50.424995
6538.085938	-50.426113
6539.062500	-52.601162
6540.039062	-53.600700
6541.015625	-51.199905
6541.992188	-50.664074
6542.968750	-51.967545
6543.945312	-51.494690
6544.921875	-50.904411
6545.898438	-51.539722
6546.875000	-50.742298
6547.851562	-50.448540
6548.828125	-51.621731
6549.804688	-52.598522
6550.781250	-52.537319
6551.757812	-53.418808
6552.734375	-52.869884
6553.710938	-53.196140
6554.687500	-52.883228
6555.664062	-52.145924
6556.640625	-50.395008
6557.617188	-51.448654
6558.593750	-51.330173
6559.570312	-51.739441
6560.546875	-51.619370
6561.523438	-51.570194
6562.500000	-50.636707
6563.476562	-50.826008
6564.453125	-52.259426
6565.429688	-51.528206
6566.406250	-52.087074
6567.382812	-51.325378
6568.359375	-51.082863
6569.335938	-51.081402
6570.312500	-50.100971
6571.289062	-50.649288
6572.265625	-50.213005
6573.242188	-50.561829
6574.218750	-50.940083
6575.195312	-50.765934
6576.171875	-51.225151
6577.148438	-51.827740
6578.125000	-51.834534
6579.101562	-54.217327
6580.078125	-51.653160
6581.054688	-52.550201
6582.031250	-53.072636
6583.007812	-52.536606
6583.984375	-51.547276
6584.960938	-52.111576
6585.937500	-52.667259
6586.914062	-52.075401
6587.890625	-52.713657
6588.867188	-52.075706
6589.843750	-52.691891
6590.820312	-52.595989
6591.796875	-50.905830
6592.773438	-51.102890
6593.750000	-52.706951
6594.726562	-51.508556
6595.703125	-51.622578
6596.679688	-51.323315
6597.656250	-52.133755
6598.632812	-51.083900
6599.609375	-51.004124
6600.585938	-50.367798
6601.562500	-50.766392
6602.539062	-51.824905
6603.515625	-50.919590
6604.492188	-51.361752
6605.468750	-51.512260
6606.445312	-51.873611
6607.421875	-53.382702
6608.398438	-53.158676
6609.375000	-53.052616
6610.351562	-51.409668
6611.328125	-51.836220
6612.304688	-50.697269
6613.281250	-52.221848
6614.257812	-52.511372
6615.234375	-52.337093
6616.210938	-53.264923
6617.187500	-52.912468
6618.164062	-51.586792
6619.140625	-53.881840
6620.117188	-54.238598
6621.093750	-51.707546
6622.070312	-52.498425
6623.046875	-52.297169
6624.023438	-52.850910
6625.000000	-53.783646
6625.976562	-52.685631
6626.953125	-52.910717
6627.929688	-52.763565
6628.906250	-51.736141
6629.882812	-51.848328
6630.859375	-52.457207
6631.835938	-52.875980
6632.812500	-53.256462
6633.789062	-52.354488
6634.765625	-53.725754
6635.742188	-52.951027
6636.718750	-51.927647
6637.695312	-52.555962
6638.671875	-53.355446
6639.648438	-53.349831
6640.625000	-53.349407
6641.601562	-53.630501
6642.578125	-54.118687
6643.554688	-53.963436
6644.531250	-53.854156
6645.507812	-53.510094
6646.484375	-51.948437
6647.460938	-51.400505
6648.437500	-52.766979
6649.414062	-53.595947
6650.390625	-53.896957
6651.367188	-54.387772
6652.343750	-54.112347
6653.320312	-54.090557
6654.296875	-52.481949
6655.273438	-51.162132
6656.250000	-51.804478
6657.226562	-54.007496
6658.203125	-53.253433
6659.179688	-53.974617
6660.156250	-53.613415
6661.132812	-54.039574
6662.109375	-55.040630
6663.085938	-52.499535
6664.062500	-53.475857
6665.039062	-52.226627
6666.015625	-53.279980
6666.992188	-52.879612
6667.968750	-52.683788
6668.945312	-53.704716
6669.921875	-52.475445
6670.898438	-52.221161
6671.875000	-52.822990
6672.851562	-53.822388
6673.828125	-55.601833
6674.804688	-53.618874
6675.781250	-53.687687
6676.757812	-54.103832
6677.734375	-53.820961
6678.710938	-54.113323
6679.687500	-53.076973
6680.664062	-53.820530
6681.640625	-53.885696
6682.617188	-55.147751
6683.593750	-55.237389
6684.570312	-52.834652
6685.546875	-52.044575
6686.523438	-54.601479
6687.500000	-54.664337
6688.476562	-53.765167
6689.453125	-53.197647
6690.429688	-53.851902
6691.406250	-53.123531
6692.382812	-53.211971
6693.359375	-53.429871
6694.335938	-53.354858
6695.312500	-52.795010
6696.289062	-54.185043
6697.265625	-54.458538
6698.242188	-54.544006
6699.218750	-54.783199
6700.195312	-55.734512
6701.171875	-54.750565
6702.148438	-53.200062
6703.125000	-54.684662
6704.101562	-55.280411
6705.078125	-53.784496
6706.054688	-54.223289
6707.031250	-53.993851
6708.007812	-54.687103
6708.984375	-54.284245
6709.960938	-53.975380
6710.937500	-54.686386
6711.914062	-53.989994
6712.890625	-54.271931
6713.867188	-54.558624
6714.843750	-54.628731
6715.820312	-54.491119
6716.796875	-54.731838
6717.773438	-55.938881
6718.750000	-55.205849
6719.726562	-55.181114
6720.703125	-55.350037
6721.679688	-55.152328
6722.656250	-55.982071
6723.632812	-56.509266
6724.609375	-56.601334
6725.585938	-56.151859
6726.562500	-57.688213
6727.539062	-56.116333
6728.515625	-55.858467
6729.492188	-57.311569
6730.468750	-55.976551
6731.445312	-55.883171
6732.421875	-57.002544
6733.398438	-55.668247
6734.375000	-56.334736
6735.351562	-56.505611
6736.328125	-56.094723
6737.304688	-55.577915
6738.281250	-55.817471
6739.257812	-56.204063
6740.234375	-55.714489
6741.210938	-56.653854
6742.187500	-56.389332
6743.164062	-55.044559
6744.140625	-55.649849
6745.117188	-55.240463
6746.093750	-55.661320
6747.070312	-56.001945
6748.046875	-55.462421
6749.023438	-54.950897
6750.000000	-55.652092
6750.976562	-54.263283
6751.953125	-55.676422
6752.929688	-56.982021
6753.906250	-56.230171
6754.882812	-56.013916
6755.859375	-55.936329
6756.835938	-55.709808
6757.812500	-56.610603
6758.789062	-55.339401
6759.765625	-55.093018
6760.742188	-56.601604
6761.718750	-56.281055
6762.695312	-56.697506
6763.671875	-56.172359
6764.648438	-56.871155
6765.625000	-55.262424
6766.601562	-55.170101
6767.578125	-56.550713
6768.554688	-55.289307
6769.531250	-54.418369
6770.507812	-56.081150
6771.484375	-56.061760
6772.460938	-56.323795
6773.437500	-55.721867
6774.414062	-56.296822
6775.390625	-57.685211
6776.367188	-56.089485
6777.343750	-57.237495
6778.320312	-57.258858
6779.296875	-56.401142
6780.273438	-55.457878
6781.250000	-56.052673
6782.226562	-55.918930
6783.203125	-55.657383
6784.179688	-57.038868
6785.156250	-55.904526
6786.132812	-56.142689
6787.109375	-56.749546
6788.085938	-57.149960
6789.062500	-56.706226
6790.039062	-55.480644
6791.015625	-55.581287
6791.992188	-56.257240
6792.968750	-55.195744
6793.945312	-55.430042
6794.921875	-55.698666
6795.898438	-57.350288
6796.875000	-56.886066
6797.851562	-57.485607
6798.828125	-56.541950
6799.804688	-56.611931
6800.781250	-56.316322
6801.757812	-55.997086
6802.734375	-55.955421
6803.710938	-56.124134
6804.687500	-55.948753
6805.664062	-56.797920
6806.640625	-56.048012
6807.617188	-56.156006
6808.593750	-55.442211
6809.570312	-54.524326
6810.546875	-57.053478
6811.523438	-55.576721
6812.500000	-56.338863
6813.476562	-56.538055
6814.453125	-56.774220
6815.429688	-55.796738
6816.406250	-55.318832
6817.382812	-56.022316
6818.359375	-54.367954
6819.335938	-55.225262
6820.312500	-55.275578
6821.289062	-56.192692
6822.265625	-55.141636
6823.242188	-56.528126
6824.218750	-56.476048
6825.195312	-55.261108
6826.171875	-56.144257
6827.148438	-56.771763
6828.125000	-56.914204
6829.101562	-56.575871
6830.078125	-56.356117
6831.054688	-55.799717
6832.031250	-56.508869
6833.007812	-56.989536
6833.984375	-55.010342
6834.960938	-55.365360
6835.937500	-55.773300
6836.914062	-54.995678
6837.890625	-55.229073
6838.867188	-55.030418
6839.843750	-55.446205
6840.820312	-56.150574
6841.796875	-56.649895
6842.773438	-53.652130
6843.750000	-54.990711
6844.726562	-55.521477
6845.703125	-55.438934
6846.679688	-56.358845
6847.656250	-57.167789
6848.632812	-55.339157
6849.609375	-56.059235
6850.585938	-56.466728
6851.562500	-56.472931
6852.539062	-56.034111
6853.515625	-56.173164
6854.492188	-54.333797
6855.468750	-56.404610
6856.445312	-55.898014
6857.421875	-56.881660
6858.398438	-57.145851
6859.375000	-57.730976
6860.351562	-56.511600
6861.328125	-55.529816
6862.304688	-55.152924
6863.281250	-55.111286
6864.257812	-55.290760
6865.234375	-55.366489
6866.210938	-54.746716
6867.187500	-56.984692
6868.164062	-57.432503
6869.140625	-56.359127
6870.117188	-57.111244
6871.093750	-57.808990
6872.070312	-55.524231
6873.046875	-55.139313
6874.023438	-53.737297
6875.000000	-54.215401
6875.976562	-55.857964
6876.953125	-55.645927
6877.929688	-57.277782
6878.906250	-56.286243
6879.882812	-55.793224
6880.859375	-56.281696
6881.835938	-56.637180
6882.812500	-55.643005
6883.789062	-56.875648
6884.765625	-55.703747
6885.742188	-54.542339
6886.718750	-57.271965
6887.695312	-57.263756
6888.671875	-56.612904
6889.648438	-55.533623
6890.625000	-56.364956
6891.601562	-55.315395
6892.578125	-56.904579
6893.554688	-56.428661
6894.531250	-55.779743
6895.507812	-56.436264
6896.484375	-55.350067
6897.460938	-55.051487
6898.437500	-56.553696
6899.414062	-55.535042
6900.390625	-56.203606
6901.367188	-55.984413
6902.343750	-54.747967
6903.320312	-54.620846
6904.296875	-56.263195
6905.273438	-55.926617
6906.250000	-55.855164
6907.226562	-56.522755
6908.203125	-54.681721
6909.179688	-55.586033
6910.156250	-54.367107
6911.132812	-55.655750
6912.109375	-55.533882
6913.085938	-56.155594
6914.062500	-56.589668
6915.039062	-55.965469
6916.015625	-56.889446
6916.992188	-56.585320
6917.968750	-56.284729
6918.945312	-55.150764
6919.921875	-56.428261
6920.898438	-55.026745
6921.875000	-56.918888
6922.851562	-57.318657
6923.828125	-57.051777
6924.804688	-57.651749
6925.781250	-57.197567
6926.757812	-57.925449
6927.734375	-57.015141
6928.710938	-56.707058
6929.687500	-56.727493
6930.664062	-56.884670
6931.640625	-55.519478
6932.617188	-56.126610
6933.593750	-56.321766
6934.570312	-56.854816
6935.546875	-57.741562
6936.523438	-55.449959
6937.500000	-55.952255
6938.476562	-56.208038
6939.453125	-55.857140
6940.429688	-57.240688
6941.406250	-56.530556
6942.382812	-56.608524
6943.359375	-55.755989
6944.335938	-55.496655
6945.312500	-56.468342
6946.289062	-56.229950
6947.265625	-56.983940
6948.242188	-57.423859
6949.218750	-56.457367
6950.195312	-57.151268
6951.171875	-56.659107
6952.148438	-55.567493
6953.125000	-56.423058
6954.101562	-56.171555
6955.078125	-56.524151
6956.054688	-56.985939
6957.031250	-56.334995
6958.007812	-55.896221
6958.984375	-56.039169
6959.960938	-55.842125
6960.937500	-57.828392
6961.914062	-57.601192
6962.890625	-57.185669
6963.867188	-57.229103
6964.843750	-57.306889
6965.820312	-56.850052
6966.796875	-57.934898
6967.773438	-57.339954
6968.750000	-56.791733
6969.726562	-57.890739
6970.703125	-58.394032
6971.679688	-57.907116
6972.656250	-56.768032
6973.632812	-57.510143
6974.609375	-57.304989
6975.585938	-57.404625
6976.562500	-59.564972
6977.539062	-57.505161
6978.515625	-55.856846
6979.492188	-57.257820
6980.468750	-56.950554
6981.445312	-59.087116
6982.421875	-56.483391
6983.398438	-56.288143
6984.375000	-57.717030
6985.351562	-57.785999
6986.328125	-57.861320
6987.304688	-57.159580
6988.281250	-56.622116
6989.257812	-56.373272
6990.234375	-58.210133
6991.210938	-59.345917
6992.187500	-58.832405
6993.164062	-58.056400
6994.140625	-58.736362
6995.117188	-57.787842
6996.093750	-58.299538
6997.070312	-57.915508
6998.046875	-57.726513
6999.023438	-57.748230
7000.000000	-57.326157
7000.976562	-56.961033
7001.953125	-57.061962
7002.929688	-58.204243
7003.906250	-57.505630
7004.882812	-59.223484
7005.859375	-57.920780
7006.835938	-57.817524
7007.812500	-58.877956
7008.789062	-59.258450
7009.765625	-58.785107
7010.742188	-57.434238
7011.718750	-57.118996
7012.695312	-56.736698
7013.671875	-57.973518
7014.648438	-58.224773
7015.625000	-58.799976
7016.601562	-57.109821
7017.578125	-56.132607
7018.554688	-57.068222
7019.531250	-56.741646
7020.507812	-56.544487
7021.484375	-58.448570
7022.460938	-57.746761
7023.437500	-57.612724
7024.414062	-58.042000
7025.390625	-57.777271
7026.367188	-58.083195
7027.343750	-57.687408
7028.320312	-58.582031
7029.296875	-58.416111
7030.273438	-58.389961
7031.250000	-57.188911
7032.226562	-57.615395
7033.203125	-57.691326
7034.179688	-57.000687
7035.156250	-58.334713
7036.132812	-57.623848
7037.109375	-57.420448
7038.085938	-58.822735
7039.062500	-58.481823
7040.039062	-57.846886
7041.015625	-57.870754
7041.992188	-58.678181
7042.968750	-57.629360
7043.945312	-57.429935
7044.921875	-57.827263
7045.898438	-57.416721
7046.875000	-57.613571
7047.851562	-58.562527
7048.828125	-56.330067
7049.804688	-58.860600
7050.781250	-58.019230
7051.757812	-57.251186
7052.734375	-58.551437
7053.710938	-58.691830
7054.687500	-57.320370
7055.664062	-59.204506
7056.640625	-59.948929
7057.617188	-59.478638
7058.593750	-57.530090
7059.570312	-58.333801
7060.546875	-56.696442
7061.523438	-57.182854
7062.500000	-58.325081
7063.476562	-59.273384
7064.453125	-59.568657
7065.429688	-57.359100
7066.406250	-59.491497
7067.382812	-57.341099
7068.359375	-57.010258
7069.335938	-57.238522
7070.312500	-57.795414
7071.289062	-58.886871
7072.265625	-58.466900
7073.242188	-57.200817
7074.218750	-58.029202
7075.195312	-57.363976
7076.171875	-57.269123
7077.148438	-57.143303
7078.125000	-59.228214
7079.101562	-57.194679
7080.078125	-57.452225
7081.054688	-57.876560
7082.031250	-58.036236
7083.007812	-57.240841
7083.984375	-58.023556
7084.960938	-58.304520
7085.937500	-57.814468
7086.914062	-57.536175
7087.890625	-55.393471
7088.867188	-56.110580
7089.843750	-57.588009
7090.820312	-59.629108
7091.796875	-58.925976
7092.773438	-58.173656
7093.750000	-57.121262
7094.726562	-56.916859
7095.703125	-58.296909
7096.679688	-58.693672
7097.656250	-57.258434
7098.632812	-58.095055
7099.609375	-56.583210
7100.585938	-58.417534
7101.562500	-58.026505
7102.539062	-56.962547
7103.515625	-57.872776
7104.492188	-57.754955
7105.468750	-57.652912
7106.445312	-56.469135
7107.421875	-55.622570
7108.398438	-57.537334
7109.375000	-56.624306
7110.351562	-56.340816
7111.328125	-57.029041
7112.304688	-56.593143
7113.281250	-57.930019
7114.257812	-56.996510
7115.234375	-59.401787
7116.210938	-58.578487
7117.187500	-57.892250
7118.164062	-59.023006
7119.140625	-58.511322
7120.117188	-56.010849
7121.093750	-58.544273
7122.070312	-57.858856
7123.046875	-58.529449
7124.023438	-56.955936
7125.000000	-56.120861
7125.976562	-55.439854
7126.953125	-56.022526
7127.929688	-57.254379
7128.906250	-56.318058
7129.882812	-56.532047
7130.859375	-57.111912
7131.835938	-57.354347
7132.812500	-57.170990
7133.789062	-54.719505
7134.765625	-56.805408
7135.742188	-58.308102
7136.718750	-58.455387
7137.695312	-58.768444
7138.671875	-58.337528
7139.648438	-56.188801
7140.625000	-56.500317
7141.601562	-57.709511
7142.578125	-57.747055
7143.554688	-55.323875
7144.531250	-55.055382
7145.507812	-55.353485
7146.484375	-55.429604
7147.460938	-56.855022
7148.437500	-56.147385
7149.414062	-57.702362
7150.390625	-56.951962
7151.367188	-56.458374
7152.343750	-56.386719
7153.320312	-56.942291
7154.296875	-57.298588
7155.273438	-56.260551
7156.250000	-57.988964
7157.226562	-58.536087
7158.203125	-59.582077
7159.179688	-58.001701
7160.156250	-58.742474
7161.132812	-57.727013
7162.109375	-58.220188
7163.085938	-58.060028
7164.062500	-55.555565
7165.039062	-55.967049
7166.015625	-57.820004
7166.992188	-57.415577
7167.968750	-56.741985
7168.945312	-56.258686
7169.921875	-57.972775
7170.898438	-58.271023
7171.875000	-58.416500
7172.851562	-56.585506
7173.828125	-59.018932
7174.804688	-57.735325
7175.781250	-58.583378
7176.757812	-58.477570
7177.734375	-57.179211
7178.710938	-59.151524
7179.687500	-60.363518
7180.664062	-57.172482
7181.640625	-56.311596
7182.617188	-56.394291
7183.593750	-56.929344
7184.570312	-57.408432
7185.546875	-57.198547
7186.523438	-58.083698
7187.500000	-58.228394
7188.476562	-57.988689
7189.453125	-58.405884
7190.429688	-60.371384
7191.406250	-59.900944
7192.382812	-60.358494
7193.359375	-58.221558
7194.335938	-58.832066
7195.312500	-58.500175
7196.289062	-59.163525
7197.265625	-59.026558
7198.242188	-57.833645
7199.218750	-59.103394
7200.195312	-58.406841
7201.171875	-57.562450
7202.148438	-56.985527
7203.125000	-59.388165
7204.101562	-59.374657
7205.078125	-57.790768
7206.054688	-58.587635
7207.031250	-57.529667
7208.007812	-58.350243
7208.984375	-59.226509
7209.960938	-58.790493
7210.937500	-58.719051
7211.914062	-58.263405
7212.890625	-57.394489
7213.867188	-58.538403
7214.843750	-59.032837
7215.820312	-58.529675
7216.796875	-58.713509
7217.773438	-58.523125
7218.750000	-58.194195
7219.726562	-58.819050
7220.703125	-59.151138
7221.679688	-60.485176
7222.656250	-58.858273
7223.632812	-60.164673
7224.609375	-61.456470
7225.585938	-60.241615
7226.562500	-58.977539
7227.539062	-58.965370
7228.515625	-60.917889
7229.492188	-59.539242
7230.468750	-57.869530
7231.445312	-57.366756
7232.421875	-57.902199
7233.398438	-57.688511
7234.375000	-57.949566
7235.351562	-58.109135
7236.328125	-59.577682
7237.304688	-58.978703
7238.281250	-58.827484
7239.257812	-58.543926
7240.234375	-59.177505
7241.210938	-60.773308
7242.187500	-60.109596
7243.164062	-60.148224
7244.140625	-60.467766
7245.117188	-60.777836
7246.093750	-60.923885
7247.070312	-61.304825
7248.046875	-60.419506
7249.023438	-60.077034
7250.000000	-58.908653
7250.976562	-59.767742
7251.953125	-59.034988
7252.929688	-60.907490
7253.906250	-60.919674
7254.882812	-59.733837
7255.859375	-58.966759
7256.835938	-59.561962
7257.812500	-59.952129
7258.789062	-60.443680
7259.765625	-60.529095
7260.742188	-59.730366
7261.718750	-59.711132
7262.695312	-61.155807
7263.671875	-61.062885
7264.648438	-61.133614
7265.625000	-60.502029
7266.601562	-61.358395
7267.578125	-61.499435
7268.554688	-59.618839
7269.531250	-60.112598
7270.507812	-61.075909
7271.484375	-62.303188
7272.460938	-61.097328
7273.437500	-59.909031
7274.414062	-60.133533
7275.390625	-59.638329
7276.367188	-60.274979
7277.343750	-60.377705
7278.320312	-59.322475
7279.296875	-60.604389
7280.273438	-61.826332
7281.250000	-60.667881
7282.226562	-59.162781
7283.203125	-60.635921
7284.179688	-60.437809
7285.156250	-59.892002
7286.132812	-61.396473
7287.109375	-60.416245
7288.085938	-60.232910
7289.062500	-60.508026
7290.039062	-60.461422
7291.015625	-61.123215
7291.992188	-60.623478
7292.968750	-59.938873
7293.945312	-61.486000
7294.921875	-62.303005
7295.898438	-62.008030
7296.875000	-61.018101
7297.851562	-61.233540
7298.828125	-60.088051
7299.804688	-61.552414
7300.781250	-61.426605
7301.757812	-60.789471
7302.734375	-60.800629
7303.710938	-59.838779
7304.687500	-60.299492
7305.664062	-60.007992
7306.640625	-60.665672
7307.617188	-60.956837
7308.593750	-61.497791
7309.570312	-61.261017
7310.546875	-61.076218
7311.523438	-60.873699
7312.500000	-61.292534
7313.476562	-60.822899
7314.453125	-60.482685
7315.429688	-61.123844
7316.406250	-61.161640
7317.382812	-62.626911
7318.359375	-62.671146
7319.335938	-62.095539
7320.312500	-62.367306
7321.289062	-61.790516
7322.265625	-61.387535
7323.242188	-59.839985
7324.218750	-60.516396
7325.195312	-59.865307
7326.171875	-59.106895
7327.148438	-59.964893
7328.125000	-59.941338
7329.101562	-61.249271
7330.078125	-60.589714
7331.054688	-60.441521
7332.031250	-61.434311
7333.007812	-62.100292
7333.984375	-60.671288
7334.960938	-62.013786
7335.937500	-61.686409
7336.914062	-61.088238
7337.890625	-61.589867
7338.867188	-60.663239
7339.843750	-60.731983
7340.820312	-61.547573
7341.796875	-60.397717
7342.773438	-59.741795
7343.750000	-59.622215
7344.726562	-60.778645
7345.703125	-61.324898
7346.679688	-60.880955
7347.656250	-59.572250
7348.632812	-59.950043
7349.609375	-60.593796
7350.585938	-60.263962
7351.562500	-59.792049
7352.539062	-59.020550
7353.515625	-60.984989
7354.492188	-61.680786
7355.468750	-60.770809
7356.445312	-59.317307
7357.421875	-61.337769
7358.398438	-60.964321
7359.375000	-61.742981
7360.351562	-60.547832
7361.328125	-60.536800
7362.304688	-60.672558
7363.281250	-60.274235
7364.257812	-60.299809
7365.234375	-59.413883
7366.210938	-58.644585
7367.187500	-58.103886
7368.164062	-59.432503
7369.140625	-59.026608
7370.117188	-61.555759
7371.093750	-60.420208
7372.070312	-58.051399
7373.046875	-58.499031
7374.023438	-59.068356
7375.000000	-58.121399
7375.976562	-59.208710
7376.953125	-62.137245
7377.929688	-59.923470
7378.906250	-60.834423
7379.882812	-58.556190
7380.859375	-60.038994
7381.835938	-59.386745
7382.812500	-61.621536
7383.789062	-60.886108
7384.765625	-61.644180
7385.742188	-62.708672
7386.718750	-60.458080
7387.695312	-62.072128
7388.671875	-59.145313
7389.648438	-58.058346
7390.625000	-59.401051
7391.601562	-58.329212
7392.578125	-58.126320
7393.554688	-61.517685
7394.531250	-60.878128
7395.507812	-60.968853
7396.484375	-61.391140
7397.460938	-58.515724
7398.437500	-57.871948
7399.414062	-58.748440
7400.390625	-59.335903
7401.367188	-59.470451
7402.343750	-59.285400
7403.320312	-58.612804
7404.296875	-58.611656
7405.273438	-59.968491
7406.250000	-59.043552
7407.226562	-59.416367
7408.203125	-60.822571
7409.179688	-59.536350
7410.156250	-60.776058
7411.132812	-59.292683
7412.109375	-58.739742
7413.085938	-59.607960
7414.062500	-60.595718
7415.039062	-60.567402
7416.015625	-59.826508
7416.992188	-60.122059
7417.968750	-60.548660
7418.945312	-59.981041
7419.921875	-57.669464
7420.898438	-57.671856
7421.875000	-59.262482
7422.851562	-57.353508
7423.828125	-57.451763
7424.804688	-59.046162
7425.781250	-59.457920
7426.757812	-58.830585
7427.734375	-58.602455
7428.710938	-59.729099
7429.687500	-60.252968
7430.664062	-59.970505
7431.640625	-59.539368
7432.617188	-59.658295
7433.593750	-59.452667
7434.570312	-59.260483
7435.546875	-58.457310
7436.523438	-58.928848
7437.500000	-60.632568
7438.476562	-60.230801
7439.453125	-60.825466
7440.429688	-59.502823
7441.406250	-60.057911
7442.382812	-60.216476
7443.359375	-59.003231
7444.335938	-59.130207
7445.312500	-58.760044
7446.289062	-59.329758
7447.265625	-58.188538
7448.242188	-59.876457
7449.218750	-60.846645
7450.195312	-59.814468
7451.171875	-60.522655
7452.148438	-60.702564
7453.125000	-59.369873
7454.101562	-60.084560
7455.078125	-59.616135
7456.054688	-58.874172
7457.031250	-59.655251
7458.007812	-61.211399
7458.984375	-60.059757
7459.960938	-61.915913
7460.937500	-62.120167
7461.914062	-62.228222
7462.890625	-60.943336
7463.867188	-60.453773
7464.843750	-60.103603
7465.820312	-61.311642
7466.796875	-59.962345
7467.773438	-60.293919
7468.750000	-61.149666
7469.726562	-61.143192
7470.703125	-60.232243
7471.679688	-60.438072
7472.656250	-59.310528
7473.632812	-59.833065
7474.609375	-60.597103
7475.585938	-61.906586
7476.562500	-61.518074
7477.539062	-62.563961
7478.515625	-61.300762
7479.492188	-59.706448
7480.468750	-60.333706
7481.445312	-58.572208
7482.421875	-59.542950
7483.398438	-60.026028
7484.375000	-60.120018
7485.351562	-60.218262
7486.328125	-60.220974
7487.304688	-62.081783
7488.281250	-61.145794
7489.257812	-60.773758
7490.234375	-61.767487
7491.210938	-61.357632
7492.187500	-62.275806
7493.164062	-61.241467
7494.140625	-61.820358
7495.117188	-61.214165
7496.093750	-59.547245
7497.070312	-60.020035
7498.046875	-59.775852
7499.023438	-59.339966
7500.000000	-58.136688
7500.976562	-61.817730
7501.953125	-60.930359
7502.929688	-60.667610
7503.906250	-61.235802
7504.882812	-61.250679
7505.859375	-60.262253
7506.835938	-62.503082
7507.812500	-61.274208
7508.789062	-61.930737
7509.765625	-61.692745
7510.742188	-61.493275
7511.718750	-60.037254
7512.695312	-58.730026
7513.671875	-58.641853
7514.648438	-59.203163
7515.625000	-59.994076
7516.601562	-62.128372
7517.578125	-62.909359
7518.554688	-61.149799
7519.531250	-61.914551
7520.507812	-59.810101
7521.484375	-60.772152
7522.460938	-61.954712
7523.437500	-61.922546
7524.414062	-61.198277
7525.390625	-61.154118
7526.367188	-60.296272
7527.343750	-59.769283
7528.320312	-60.046658
7529.296875	-60.451904
7530.273438	-60.312386
7531.250000	-60.795132
7532.226562	-61.115555
7533.203125	-60.032494
7534.179688	-60.037914
7535.156250	-61.625210
7536.132812	-62.095581
7537.109375	-60.445164
7538.085938	-60.897766
7539.062500	-60.224991
7540.039062	-61.823891
7541.015625	-61.994122
7541.992188	-62.665180
7542.968750	-62.338898
7543.945312	-61.375225
7544.921875	-61.606098
7545.898438	-59.519527
7546.875000	-59.653931
7547.851562	-60.943424
7548.828125	-60.807705
7549.804688	-60.256382
7550.781250	-60.042656
7551.757812	-59.546566
7552.734375	-59.762432
7553.710938	-60.777321
7554.687500	-60.052990
7555.664062	-57.808350
7556.640625	-58.970982
7557.617188	-60.274208
7558.593750	-59.896702
7559.570312	-59.861103
7560.546875	-61.214371
7561.523438	-61.509590
7562.500000	-61.300491
7563.476562	-60.148567
7564.453125	-61.320465
7565.429688	-62.008450
7566.406250	-61.544094
7567.382812	-58.554298
7568.359375	-59.587971
7569.335938	-59.770470
7570.312500	-60.040417
7571.289062	-61.751823
7572.265625	-60.708832
7573.242188	-61.362499
7574.218750	-60.003448
7575.195312	-62.210960
7576.171875	-64.077988
7577.148438	-60.363380
7578.125000	-59.047127
7579.101562	-59.658337
7580.078125	-62.335835
7581.054688	-61.046490
7582.031250	-60.112274
7583.007812	-58.876652
7583.984375	-57.780331
7584.960938	-59.767776
7585.937500	-60.449833
7586.914062	-58.614201
7587.890625	-59.822975
7588.867188	-60.294876
7589.843750	-60.986477
7590.820312	-60.681530
7591.796875	-60.963936
7592.773438	-60.459011
7593.750000	-60.783192
7594.726562	-61.096348
7595.703125	-63.083260
7596.679688	-61.892967
7597.656250	-60.933208
7598.632812	-59.574749
7599.609375	-60.229012
7600.585938	-60.728958
7601.562500	-60.703049
7602.539062	-60.986855
7603.515625	-61.718060
7604.492188	-58.481659
7605.468750	-60.141079
7606.445312	-60.882114
7607.421875	-61.884262
7608.398438	-60.268608
7609.375000	-60.327255
7610.351562	-60.200123
7611.328125	-59.567543
7612.304688	-59.596107
7613.281250	-59.561626
7614.257812	-60.228241
7615.234375	-59.330082
7616.210938	-60.268909
7617.187500	-61.712742
7618.164062	-61.815041
7619.140625	-61.597755
7620.117188	-60.926567
7621.093750	-59.065228
7622.070312	-60.031548
7623.046875	-59.939865
7624.023438	-61.922798
7625.000000	-61.530643
7625.976562	-59.712734
7626.953125	-59.437138
7627.929688	-61.491112
7628.906250	-62.513309
7629.882812	-63.191689
7630.859375	-63.400585
7631.835938	-61.722103
7632.812500	-61.769665
7633.789062	-61.765945
7634.765625	-60.537491
7635.742188	-60.989971
7636.718750	-60.671375
7637.695312	-60.509502
7638.671875	-60.561653
7639.648438	-61.644436
7640.625000	-59.999023
7641.601562	-60.171806
7642.578125	-60.162785
7643.554688	-57.696499
7644.531250	-58.854832
7645.507812	-61.166569
7646.484375	-61.818066
7647.460938	-60.993969
7648.437500	-61.735168
7649.414062	-61.612152
7650.390625	-63.701714
7651.367188	-63.107933
7652.343750	-62.966267
7653.320312	-62.636665
7654.296875	-60.981010
7655.273438	-61.159206
7656.250000	-62.095211
7657.226562	-62.038765
7658.203125	-62.127541
7659.179688	-60.698841
7660.156250	-61.818588
7661.132812	-61.679798
7662.109375	-61.478004
7663.085938	-62.284931
7664.062500	-62.472790
7665.039062	-60.360435
7666.015625	-60.638485
7666.992188	-61.577400
7667.968750	-60.928173
7668.945312	-59.483654
7669.921875	-61.764629
7670.898438	-60.981514
7671.875000	-62.283096
7672.851562	-63.358730
7673.828125	-61.370586
7674.804688	-62.871265
7675.781250	-61.349045
7676.757812	-63.230579
7677.734375	-62.515289
7678.710938	-63.665981
7679.687500	-61.121277
7680.664062	-61.698322
7681.640625	-64.460663
7682.617188	-64.517609
7683.593750	-61.130718
7684.570312	-63.790920
7685.546875	-62.863438
7686.523438	-63.813778
7687.500000	-63.327904
7688.476562	-62.638870
7689.453125	-61.764507
7690.429688	-63.459068
7691.406250	-63.503181
7692.382812	-63.606209
7693.359375	-63.845760
7694.335938	-62.403671
7695.312500	-63.815075
7696.289062	-61.827698
7697.265625	-62.118320
7698.242188	-61.565445
7699.218750	-62.336735
7700.195312	-62.649586
7701.171875	-61.647984
7702.148438	-62.798161
7703.125000	-62.140041
7704.101562	-64.658249
7705.078125	-62.798897
7706.054688	-62.353653
7707.031250	-62.939217
7708.007812	-64.700569
7708.984375	-63.256413
7709.960938	-63.422092
7710.937500	-63.368824
7711.914062	-62.355000
7712.890625	-64.252045
7713.867188	-64.758461
7714.843750	-63.596661
7715.820312	-63.491161
7716.796875	-63.644669
7717.773438	-63.998795
7718.750000	-64.528168
7719.726562	-65.280647
7720.703125	-63.661610
7721.679688	-62.400208
7722.656250	-62.462791
7723.632812	-62.673897
7724.609375	-63.304241
7725.585938	-62.716030
7726.562500	-61.541725
7727.539062	-61.934715
7728.515625	-62.170944
7729.492188	-61.500343
7730.468750	-62.898079
7731.445312	-64.454826
7732.421875	-65.925858
7733.398438	-64.234718
7734.375000	-63.505196
7735.351562	-64.068314
7736.328125	-64.122292
7737.304688	-64.387482
7738.281250	-62.880825
7739.257812	-63.982464
7740.234375	-64.567535
7741.210938	-64.365189
7742.187500	-65.902756
7743.164062	-65.371346
7744.140625	-65.577614
7745.117188	-65.160034
7746.093750	-63.580959
7747.070312	-62.913204
7748.046875	-62.928215
7749.023438	-63.545120
7750.000000	-63.659760
7750.976562	-63.758228
7751.953125	-63.667492
7752.929688	-65.446747
7753.906250	-64.158020
7754.882812	-64.150887
7755.859375	-63.877213
7756.835938	-65.226898
7757.812500	-65.415627
7758.789062	-64.753540
7759.765625	-63.356113
7760.742188	-63.709259
7761.718750	-64.064247
7762.695312	-65.152863
7763.671875	-65.356445
7764.648438	-64.551132
7765.625000	-64.624580
7766.601562	-64.691711
7767.578125	-65.396393
7768.554688	-65.787445
7769.531250	-66.060234
7770.507812	-65.489601
7771.484375	-65.761116
7772.460938	-65.344536
7773.437500	-64.697563
7774.414062	-65.613281
7775.390625	-64.883606
7776.367188	-63.362007
7777.343750	-63.755066
7778.320312	-63.974487
7779.296875	-64.053032
7780.273438	-63.770176
7781.250000	-63.512558
7782.226562	-64.068398
7783.203125	-64.201561
7784.179688	-64.759964
7785.156250	-65.307114
7786.132812	-65.981049
7787.109375	-66.392784
7788.085938	-65.327545
7789.062500	-64.256554
7790.039062	-64.226700
7791.015625	-67.003288
7791.992188	-65.254623
7792.968750	-65.640556
7793.945312	-65.368881
7794.921875	-66.127419
7795.898438	-67.040680
7796.875000	-65.095245
7797.851562	-64.221291
7798.828125	-62.922127
7799.804688	-62.940903
7800.781250	-62.976257
7801.757812	-63.173592
7802.734375	-64.584396
7803.710938	-65.692299
7804.687500	-65.256767
7805.664062	-67.255028
7806.640625	-68.359726
7807.617188	-66.608757
7808.593750	-66.792786
7809.570312	-66.312469
7810.546875	-66.620583
7811.523438	-65.830284
7812.500000	-65.257095
7813.476562	-65.383713
7814.453125	-66.582176
7815.429688	-65.924377
7816.406250	-66.022148
7817.382812	-65.394211
7818.359375	-63.727207
7819.335938	-62.758308
7820.312500	-63.943085
7821.289062	-65.579781
7822.265625	-66.089874
7823.242188	-66.303215
7824.218750	-65.087547
7825.195312	-67.704514
7826.171875	-66.551094
7827.148438	-67.065544
7828.125000	-65.756546
7829.101562	-66.155350
7830.078125	-65.227318
7831.054688	-66.366905
7832.031250	-67.346558
7833.007812	-66.292953
7833.984375	-66.656219
7834.960938	-65.333183
7835.937500	-64.684166
7836.914062	-65.261482
7837.890625	-64.012726
7838.867188	-63.281677
7839.843750	-64.402664
7840.820312	-65.353043
7841.796875	-66.189507
7842.773438	-66.425652
7843.750000	-66.783043
7844.726562	-67.623306
7845.703125	-65.939262
7846.679688	-66.629189
7847.656250	-67.876266
7848.632812	-66.412117
7849.609375	-65.965454
7850.585938	-67.613358
7851.562500	-65.973930
7852.539062	-65.657433
7853.515625	-66.156075
7854.492188	-64.395508
7855.468750	-65.000572
7856.445312	-64.650574
7857.421875	-65.085541
7858.398438	-65.025101
7859.375000	-64.788780
7860.351562	-67.147957
7861.328125	-66.064659
7862.304688	-64.075905
7863.281250	-64.036163
7864.257812	-67.158363
7865.234375	-67.175133
7866.210938	-68.803116
7867.187500	-66.426254
7868.164062	-65.995773
7869.140625	-63.556213
7870.117188	-64.155518
7871.093750	-64.484398
7872.070312	-65.574081
7873.046875	-66.299149
7874.023438	-67.864799
7875.000000	-65.281433
7875.976562	-67.291161
7876.953125	-66.764488
7877.929688	-64.666618
7878.906250	-66.285492
7879.882812	-65.095085
7880.859375	-66.173164
7881.835938	-65.857101
7882.812500	-64.119514
7883.789062	-64.296211
7884.765625	-65.249985
7885.742188	-63.460472
7886.718750	-63.099548
7887.695312	-63.807568
7888.671875	-64.696480
7889.648438	-67.033493
7890.625000	-65.727524
7891.601562	-67.104485
7892.578125	-66.074203
7893.554688	-67.423149
7894.531250	-65.236771
7895.507812	-65.688118
7896.484375	-66.287109
7897.460938	-65.426338
7898.437500	-66.699615
7899.414062	-66.610237
7900.390625	-66.346680
7901.367188	-64.752953
7902.343750	-65.696480
7903.320312	-65.527794
7904.296875	-64.875542
7905.273438	-64.140190
7906.250000	-66.069397
7907.226562	-65.661194
7908.203125	-66.021843
7909.179688	-65.109367
7910.156250	-64.351532
7911.132812	-65.728653
7912.109375	-65.662056
7913.085938	-67.018417
7914.062500	-66.427879
7915.039062	-66.349220
7916.015625	-65.940956
7916.992188	-65.706520
7917.968750	-65.774101
7918.945312	-65.618820
7919.921875	-66.468575
7920.898438	-68.067627
7921.875000	-66.691254
7922.851562	-66.469910
7923.828125	-65.753433
7924.804688	-66.837196
7925.781250	-67.499565
7926.757812	-67.029076
7927.734375	-66.660637
7928.710938	-65.611458
7929.687500	-64.862564
7930.664062	-65.591270
7931.640625	-65.573112
7932.617188	-65.307045
7933.593750	-65.635109
7934.570312	-66.248573
7935.546875	-65.403000
7936.523438	-64.815147
7937.500000	-66.436707
7938.476562	-66.035439
7939.453125	-67.149902
7940.429688	-67.338745
7941.406250	-67.264671
7942.382812	-67.061356
7943.359375	-66.891441
7944.335938	-65.887863
7945.312500	-65.859230
7946.289062	-66.241699
7947.265625	-66.636368
7948.242188	-66.174446
7949.218750	-65.675262
7950.195312	-67.418213
7951.171875	-66.654099
7952.148438	-65.189430
7953.125000	-65.494476
7954.101562	-65.576385
7955.078125	-66.207573
7956.054688	-65.096138
7957.031250	-66.933220
7958.007812	-66.776749
7958.984375	-67.303055
7959.960938	-64.618187
7960.937500	-64.966080
7961.914062	-68.113945
7962.890625	-67.533638
7963.867188	-65.805061
7964.843750	-66.182930
7965.820312	-64.589035
7966.796875	-67.680153
7967.773438	-66.701706
7968.750000	-67.388634
7969.726562	-67.055473
7970.703125	-67.251808
7971.679688	-66.396088
7972.656250	-65.880630
7973.632812	-65.322479
7974.609375	-66.051727
7975.585938	-66.842331
7976.562500	-66.655426
7977.539062	-64.568832
7978.515625	-65.235252
7979.492188	-66.313980
7980.468750	-66.950638
7981.445312	-66.202309
7982.421875	-64.737778
7983.398438	-67.961205
7984.375000	-68.438484
7985.351562	-67.831749
7986.328125	-67.286095
7987.304688	-66.112976
7988.281250	-65.515388
7989.257812	-67.612259
7990.234375	-65.781120
7991.210938	-68.310173
7992.187500	-68.681679
7993.164062	-66.839684
7994.140625	-67.056259
7995.117188	-67.952248
7996.093750	-67.772972
7997.070312	-65.877861
7998.046875	-65.643814
7999.023438	-65.396301
