Frequency (Hz)	Level (dB)
0.976562	-66.562912
1.953125	-67.919067
2.929688	-71.542732
3.906250	-71.323776
4.882812	-68.965401
5.859375	-66.968750
6.835938	-65.142357
7.812500	-65.239159
8.789062	-62.316902
9.765625	-60.463612
10.742188	-59.463760
11.718750	-59.881424
12.695312	-60.574547
13.671875	-60.332596
14.648438	-60.217152
15.625000	-61.880276
16.601562	-61.721188
17.578125	-62.140942
18.554688	-62.235008
19.531250	-60.735153
20.507812	-57.998730
21.484375	-55.332790
22.460938	-55.854034
23.437500	-57.156231
24.414062	-57.064217
25.390625	-59.263805
26.367188	-61.373215
27.343750	-61.421272
28.320312	-59.444340
29.296875	-60.529144
30.273438	-61.095943
31.250000	-57.621284
32.226562	-57.857426
33.203125	-57.622559
34.179688	-57.551201
35.156250	-59.968380
36.132812	-58.432198
37.109375	-58.575798
38.085938	-57.760620
39.062500	-59.071556
40.039062	-60.418560
41.015625	-58.328152
41.992188	-59.978321
42.968750	-58.084206
43.945312	-57.455429
44.921875	-58.224693
45.898438	-59.806515
46.875000	-59.400692
47.851562	-57.800667
48.828125	-59.457844
49.804688	-58.691860
50.781250	-58.919716
51.757812	-56.855362
52.734375	-57.351738
53.710938	-57.766296
54.687500	-57.125546
55.664062	-56.439465
56.640625	-56.540005
57.617188	-57.109802
58.593750	-58.544220
59.570312	-58.519146
60.546875	-58.362530
61.523438	-58.038639
62.500000	-58.895489
63.476562	-59.695038
64.453125	-59.631756
65.429688	-59.202049
66.406250	-59.718941
67.382812	-57.711140
68.359375	-60.065941
69.335938	-58.581921
70.312500	-57.597591
71.289062	-58.225224
72.265625	-56.817348
73.242188	-58.173321
74.218750	-57.911053
75.195312	-58.585220
76.171875	-58.451752
77.148438	-58.672489
78.125000	-57.648846
79.101562	-57.924164
80.078125	-55.305428
81.054688	-56.820339
82.031250	-57.784199
83.007812	-58.266251
83.984375	-59.567448
84.960938	-60.065960
85.937500	-59.659565
86.914062	-58.267250
87.890625	-58.223122
88.867188	-61.356529
89.843750	-59.380886
90.820312	-59.420952
91.796875	-58.413960
92.773438	-58.460602
93.750000	-58.158665
94.726562	-58.162525
95.703125	-58.739254
96.679688	-59.633965
97.656250	-57.843136
98.632812	-57.066315
99.609375	-58.660210
100.585938	-59.343754
101.562500	-58.036343
102.539062	-56.846310
103.515625	-58.258198
104.492188	-58.728340
105.468750	-58.412659
106.445312	-58.653572
107.421875	-58.491947
108.398438	-59.621262
109.375000	-60.169849
110.351562	-59.860699
111.328125	-59.954433
112.304688	-57.784222
113.281250	-58.407097
114.257812	-58.754707
115.234375	-59.344639
116.210938	-59.499271
117.187500	-58.176991
118.164062	-58.557255
119.140625	-58.926136
120.117188	-57.837025
121.093750	-58.683285
122.070312	-58.886864
123.046875	-58.771740
124.023438	-57.429173
125.000000	-57.055450
125.976562	-59.138367
126.953125	-57.498489
127.929688	-56.736984
128.906250	-58.296841
129.882812	-59.701714
130.859375	-59.332348
131.835938	-59.999866
132.812500	-60.450569
133.789062	-59.000572
134.765625	-59.312202
135.742188	-57.642097
136.718750	-58.376427
137.695312	-59.384586
138.671875	-58.615856
139.648438	-59.167351
140.625000	-58.559517
141.601562	-61.024761
142.578125	-59.592155
143.554688	-58.979931
144.531250	-57.821320
145.507812	-58.012035
146.484375	-59.520813
147.460938	-58.432858
148.437500	-57.836403
149.414062	-57.590252
150.390625	-60.208248
151.367188	-58.359093
152.343750	-60.120285
153.320312	-59.359604
154.296875	-59.592514
155.273438	-60.167130
156.250000	-59.576683
157.226562	-59.361942
158.203125	-58.898415
159.179688	-59.618267
160.156250	-58.380276
161.132812	-57.954815
162.109375	-58.932587
163.085938	-60.470741
164.062500	-59.746834
165.039062	-59.028107
166.015625	-59.532986
166.992188	-59.428913
167.968750	-60.126228
168.945312	-58.165737
169.921875	-59.306126
170.898438	-59.213749
171.875000	-59.259773
172.851562	-57.799782
173.828125	-59.416824
174.804688	-59.381668
175.781250	-58.289307
176.757812	-59.291561
177.734375	-60.001072
178.710938	-60.873062
179.687500	-58.564156
180.664062	-58.910469
181.640625	-58.845631
182.617188	-60.249767
183.593750	-59.720474
184.570312	-58.128071
185.546875	-59.190075
186.523438	-60.371559
187.500000	-60.058846
188.476562	-58.430405
189.453125	-57.221466
190.429688	-58.653107
191.406250	-59.316002
192.382812	-60.909336
193.359375	-59.617332
194.335938	-60.458447
195.312500	-59.296169
196.289062	-60.204300
197.265625	-60.140163
198.242188	-60.719822
199.218750	-61.121296
200.195312	-62.586449
201.171875	-62.443634
202.148438	-60.776524
203.125000	-60.145466
204.101562	-58.998302
205.078125	-58.976727
206.054688	-58.870914
207.031250	-59.120590
208.007812	-59.131664
208.984375	-58.918213
209.960938	-60.602962
210.937500	-60.508125
211.914062	-59.847424
212.890625	-60.178211
213.867188	-61.005726
214.843750	-60.199192
215.820312	-59.999176
216.796875	-59.966415
217.773438	-59.297417
218.750000	-59.469097
219.726562	-60.604446
220.703125	-60.780865
221.679688	-58.723091
222.656250	-58.861362
223.632812	-59.868916
224.609375	-60.595413
225.585938	-59.362461
226.562500	-60.835659
227.539062	-59.767067
228.515625	-59.861103
229.492188	-59.286518
230.468750	-61.660194
231.445312	-59.662193
232.421875	-61.187393
233.398438	-61.528759
234.375000	-60.215244
235.351562	-59.697746
236.328125	-59.079014
237.304688	-59.308411
238.281250	-58.586029
239.257812	-60.184998
240.234375	-59.861088
241.210938	-59.981853
242.187500	-58.103657
243.164062	-59.730396
244.140625	-59.206638
245.117188	-60.284718
246.093750	-59.301170
247.070312	-60.606308
248.046875	-59.664597
249.023438	-59.722553
250.000000	-59.460049
250.976562	-59.188004
251.953125	-59.051399
252.929688	-58.469223
253.906250	-58.939205
254.882812	-59.769115
255.859375	-59.552921
256.835938	-61.661964
257.812500	-58.815788
258.789062	-60.527927
259.765625	-59.824089
260.742188	-59.196499
261.718750	-59.205315
262.695312	-60.728294
263.671875	-60.289009
264.648438	-60.062851
265.625000	-60.548687
266.601562	-60.515797
267.578125	-59.939178
268.554688	-60.027489
269.531250	-61.719864
270.507812	-62.494385
271.484375	-59.646591
272.460938	-59.348343
273.437500	-60.960186
274.414062	-57.594563
275.390625	-58.719791
276.367188	-60.641445
277.343750	-61.372410
278.320312	-61.551819
279.296875	-60.611111
280.273438	-60.166649
281.250000	-61.045757
282.226562	-60.672882
283.203125	-60.564766
284.179688	-60.001324
285.156250	-60.134827
286.132812	-61.348339
287.109375	-62.486526
288.085938	-60.618069
289.062500	-60.195858
290.039062	-60.589901
291.015625	-60.757301
291.992188	-60.091389
292.968750	-59.697979
293.945312	-60.563713
294.921875	-59.818783
295.898438	-60.452671
296.875000	-61.919872
297.851562	-60.358517
298.828125	-59.411858
299.804688	-59.820095
300.781250	-59.765324
301.757812	-59.820686
302.734375	-59.973656
303.710938	-60.671387
304.687500	-61.455292
305.664062	-61.031109
306.640625	-60.244896
307.617188	-60.531605
308.593750	-59.516144
309.570312	-60.152943
310.546875	-61.873249
311.523438	-60.193398
312.500000	-60.423985
313.476562	-60.420410
314.453125	-58.813519
315.429688	-58.175694
316.406250	-61.105511
317.382812	-61.061375
318.359375	-60.235859
319.335938	-59.369076
320.312500	-60.209072
321.289062	-59.598167
322.265625	-59.834515
323.242188	-59.838116
324.218750	-60.074837
325.195312	-62.468304
326.171875	-61.569134
327.148438	-62.796131
328.125000	-59.972294
329.101562	-60.274899
330.078125	-60.917885
331.054688	-59.794468
332.031250	-60.309666
333.007812	-59.619438
333.984375	-60.454754
334.960938	-60.411503
335.937500	-59.360310
336.914062	-60.145332
337.890625	-61.030861
338.867188	-60.368828
339.843750	-61.104866
340.820312	-60.388767
341.796875	-60.495079
342.773438	-60.809605
343.750000	-60.910156
344.726562	-60.009544
345.703125	-58.607151
346.679688	-59.125877
347.656250	-59.726440
348.632812	-60.247021
349.609375	-59.507442
350.585938	-60.427814
351.562500	-59.855770
352.539062	-60.489925
353.515625	-61.008511
354.492188	-60.208572
355.468750	-59.774498
356.445312	-61.691509
357.421875	-61.178722
358.398438	-61.728531
359.375000	-60.783802
360.351562	-60.593269
361.328125	-60.203117
362.304688	-61.597412
363.281250	-60.246887
364.257812	-59.934555
365.234375	-60.993988
366.210938	-59.402012
367.187500	-59.524506
368.164062	-60.140148
369.140625	-59.149788
370.117188	-60.734619
371.093750	-60.536476
372.070312	-59.698811
373.046875	-61.097561
374.023438	-60.881649
375.000000	-60.164967
375.976562	-59.721893
376.953125	-60.511154
377.929688	-59.545643
378.906250	-59.792213
379.882812	-60.307865
380.859375	-60.057587
381.835938	-60.051479
382.812500	-61.637009
383.789062	-60.132137
384.765625	-59.177135
385.742188	-59.531563
386.718750	-58.988605
387.695312	-57.927155
388.671875	-59.506462
389.648438	-60.233345
390.625000	-59.844738
391.601562	-58.771999
392.578125	-59.336487
393.554688	-61.179340
394.531250	-60.060665
395.507812	-60.142403
396.484375	-60.781898
397.460938	-60.647800
398.437500	-59.131840
399.414062	-57.896561
400.390625	-59.506210
401.367188	-59.940113
402.343750	-59.957176
403.320312	-59.870132
404.296875	-58.592369
405.273438	-58.102676
406.250000	-58.926338
407.226562	-58.644600
408.203125	-59.844711
409.179688	-60.326626
410.156250	-58.001682
411.132812	-59.669518
412.109375	-57.498703
413.085938	-58.197968
414.062500	-59.360462
415.039062	-58.896332
416.015625	-59.581688
416.992188	-61.395237
417.968750	-60.463741
418.945312	-60.307720
419.921875	-59.709549
420.898438	-59.908295
421.875000	-58.931789
422.851562	-59.419704
423.828125	-59.937626
424.804688	-60.811245
425.781250	-60.647892
426.757812	-58.384323
427.734375	-58.486317
428.710938	-59.131248
429.687500	-59.808643
430.664062	-58.291355
431.640625	-58.075062
432.617188	-59.885609
433.593750	-58.620903
434.570312	-59.978397
435.546875	-59.189327
436.523438	-59.327560
437.500000	-58.953869
438.476562	-60.126144
439.453125	-59.577286
440.429688	-60.133636
441.406250	-60.218773
442.382812	-60.202484
443.359375	-59.646645
444.335938	-59.723057
445.312500	-60.500622
446.289062	-60.761719
447.265625	-59.885815
448.242188	-59.153168
449.218750	-57.769665
450.195312	-57.847988
451.171875	-58.255768
452.148438	-58.501762
453.125000	-58.471851
454.101562	-59.169529
455.078125	-58.644749
456.054688	-59.130775
457.031250	-60.888260
458.007812	-60.335453
458.984375	-59.092712
459.960938	-59.170242
460.937500	-58.944256
461.914062	-60.565468
462.890625	-60.629883
463.867188	-61.458355
464.843750	-61.032726
465.820312	-60.924644
466.796875	-59.760242
467.773438	-60.549633
468.750000	-60.470299
469.726562	-57.955986
470.703125	-58.753742
471.679688	-60.061275
472.656250	-59.104256
473.632812	-60.620869
474.609375	-58.893444
475.585938	-59.878723
476.562500	-58.660137
477.539062	-60.060436
478.515625	-59.123516
479.492188	-59.875114
480.468750	-58.038914
481.445312	-59.917942
482.421875	-59.371284
483.398438	-59.765083
484.375000	-59.420269
485.351562	-59.469688
486.328125	-60.081615
487.304688	-60.334023
488.281250	-60.263058
489.257812	-60.157070
490.234375	-58.645836
491.210938	-57.269684
492.187500	-57.301918
493.164062	-56.951775
494.140625	-59.501858
495.117188	-57.609241
496.093750	-59.047409
497.070312	-58.348572
498.046875	-58.605103
499.023438	-60.427586
500.000000	-58.975761
500.976562	-59.346390
501.953125	-57.200470
502.929688	-60.576157
503.906250	-59.499821
504.882812	-58.539059
505.859375	-61.240517
506.835938	-61.095432
507.812500	-60.057159
508.789062	-59.835163
509.765625	-59.759136
510.742188	-59.516857
511.718750	-58.943615
512.695312	-58.571384
513.671875	-58.712685
514.648438	-58.105953
515.625000	-57.826389
516.601562	-57.114353
517.578125	-57.418102
518.554688	-57.768196
519.531250	-59.483910
520.507812	-59.561237
521.484375	-59.144863
522.460938	-58.280407
523.437500	-58.623924
524.414062	-58.996643
525.390625	-59.446232
526.367188	-59.255032
527.343750	-59.096184
528.320312	-59.098293
529.296875	-59.984241
530.273438	-59.209614
531.250000	-58.493488
532.226562	-58.859241
533.203125	-59.258198
534.179688	-57.185204
535.156250	-57.670181
536.132812	-57.317963
537.109375	-57.240295
538.085938	-58.959827
539.062500	-57.942585
540.039062	-58.333370
541.015625	-58.008839
541.992188	-60.121445
542.968750	-60.117405
543.945312	-57.983406
544.921875	-59.017269
545.898438	-59.200439
546.875000	-57.738831
547.851562	-58.951988
548.828125	-60.120937
549.804688	-59.417076
550.781250	-58.892654
551.757812	-59.356216
552.734375	-59.978283
553.710938	-58.592144
554.687500	-58.642689
555.664062	-58.615364
556.640625	-58.122631
557.617188	-59.444691
558.593750	-58.672813
559.570312	-57.852020
560.546875	-59.048889
561.523438	-60.794361
562.500000	-59.689335
563.476562	-58.997993
564.453125	-58.080662
565.429688	-57.620964
566.406250	-59.532452
567.382812	-58.780792
568.359375	-58.804810
569.335938	-58.197956
570.312500	-58.500259
571.289062	-59.005295
572.265625	-60.502934
573.242188	-59.576878
574.218750	-59.763073
575.195312	-58.074257
576.171875	-58.400719
577.148438	-58.213699
578.125000	-56.784565
579.101562	-58.297367
580.078125	-58.624020
581.054688	-58.155243
582.031250	-59.020248
583.007812	-58.657616
583.984375	-58.635723
584.960938	-59.750195
585.937500	-58.516010
586.914062	-61.008148
587.890625	-59.853355
588.867188	-59.772942
589.843750	-60.307819
590.820312	-59.820694
591.796875	-60.404465
592.773438	-60.573048
593.750000	-59.942276
594.726562	-60.195961
595.703125	-59.195316
596.679688	-57.747925
597.656250	-57.487682
598.632812	-57.783592
599.609375	-56.842926
600.585938	-58.412823
601.562500	-58.839008
602.539062	-58.167835
603.515625	-57.867592
604.492188	-58.511711
605.468750	-59.507130
606.445312	-58.711220
607.421875	-59.470818
608.398438	-59.749756
609.375000	-59.961559
610.351562	-58.744629
611.328125	-59.578072
612.304688	-59.669048
613.281250	-59.280262
614.257812	-59.909317
615.234375	-58.373734
616.210938	-59.617729
617.187500	-59.287388
618.164062	-59.641697
619.140625	-58.540710
620.117188	-57.846561
621.093750	-57.245193
622.070312	-57.735550
623.046875	-59.463608
624.023438	-59.035351
625.000000	-58.001202
625.976562	-59.032524
626.953125	-58.833054
627.929688	-59.534626
628.906250	-58.594883
629.882812	-60.091496
630.859375	-59.640823
631.835938	-59.012753
632.812500	-59.402020
633.789062	-59.732220
634.765625	-61.117714
635.742188	-59.986851
636.718750	-59.849102
637.695312	-59.367130
638.671875	-60.126331
639.648438	-59.980785
640.625000	-58.622280
641.601562	-58.474506
642.578125	-58.315578
643.554688	-59.032833
644.531250	-57.540932
645.507812	-58.993336
646.484375	-60.005577
647.460938	-59.239147
648.437500	-59.338463
649.414062	-58.126144
650.390625	-59.874329
651.367188	-60.609882
652.343750	-59.665237
653.320312	-58.469460
654.296875	-58.695717
655.273438	-60.267941
656.250000	-59.446873
657.226562	-59.754883
658.203125	-60.642677
659.179688	-60.498440
660.156250	-59.956875
661.132812	-60.235901
662.109375	-58.725235
663.085938	-58.157055
664.062500	-57.698540
665.039062	-57.670761
666.015625	-59.561275
666.992188	-59.516350
667.968750	-60.439835
668.945312	-61.407887
669.921875	-60.728878
670.898438	-59.483051
671.875000	-58.444851
672.851562	-59.962894
673.828125	-59.609135
674.804688	-59.967373
675.781250	-58.490189
676.757812	-59.291325
677.734375	-60.163857
678.710938	-60.717255
679.687500	-58.138893
680.664062	-59.790958
681.640625	-59.280998
682.617188	-60.725773
683.593750	-61.463963
684.570312	-58.415379
685.546875	-58.486752
686.523438	-59.235897
687.500000	-57.753323
688.476562	-58.048817
689.453125	-59.589741
690.429688	-59.570145
691.406250	-59.979336
692.382812	-60.150047
693.359375	-61.444679
694.335938	-59.522854
695.312500	-59.270542
696.289062	-58.698792
697.265625	-57.949364
698.242188	-59.516216
699.218750	-60.056793
700.195312	-59.147820
701.171875	-59.479836
702.148438	-59.279182
703.125000	-59.262283
704.101562	-58.255882
705.078125	-58.835346
706.054688	-58.446632
707.031250	-58.350842
708.007812	-59.896862
708.984375	-59.288544
709.960938	-58.924549
710.937500	-59.938976
711.914062	-61.363377
712.890625	-59.971058
713.867188	-60.404495
714.843750	-60.256710
715.820312	-59.328556
716.796875	-60.218746
717.773438	-59.647717
718.750000	-59.871769
719.726562	-59.759506
720.703125	-59.264427
721.679688	-60.520081
722.656250	-60.263775
723.632812	-59.407742
724.609375	-59.108929
725.585938	-59.712749
726.562500	-60.711277
727.539062	-58.999397
728.515625	-58.421436
729.492188	-60.444458
730.468750	-59.316814
731.445312	-59.517860
732.421875	-60.112080
733.398438	-61.357735
734.375000	-62.588394
735.351562	-59.905308
736.328125	-60.635147
737.304688	-60.911419
738.281250	-60.307999
739.257812	-60.377380
740.234375	-60.025131
741.210938	-60.239925
742.187500	-59.407120
743.164062	-59.031158
744.140625	-60.536652
745.117188	-60.551891
746.093750	-61.202366
747.070312	-60.270531
748.046875	-60.223099
749.023438	-59.260292
750.000000	-58.819221
750.976562	-60.691818
751.953125	-59.309086
752.929688	-59.156456
753.906250	-58.434956
754.882812	-59.491688
755.859375	-60.471195
756.835938	-59.339199
757.812500	-61.159653
758.789062	-60.588295
759.765625	-60.754910
760.742188	-60.791351
761.718750	-59.496204
762.695312	-59.085056
763.671875	-59.969944
764.648438	-59.705635
765.625000	-59.438068
766.601562	-61.285553
767.578125	-61.561573
768.554688	-60.021149
769.531250	-59.680889
770.507812	-60.074558
771.484375	-60.187256
772.460938	-59.563755
773.437500	-59.102417
774.414062	-60.407360
775.390625	-60.824818
776.367188	-60.374958
777.343750	-59.512859
778.320312	-59.979290
779.296875	-61.633572
780.273438	-60.895458
781.250000	-61.768238
782.226562	-60.817879
783.203125	-60.900879
784.179688	-59.702923
785.156250	-60.774422
786.132812	-60.917908
787.109375	-60.696194
788.085938	-60.250111
789.062500	-59.781261
790.039062	-59.476799
791.015625	-59.789265
791.992188	-60.237091
792.968750	-59.685741
793.945312	-59.615173
794.921875	-58.343266
795.898438	-60.520126
796.875000	-59.753239
797.851562	-61.208714
798.828125	-60.232376
799.804688	-59.456802
800.781250	-59.397728
801.757812	-60.103340
802.734375	-60.894085
803.710938	-59.152508
804.687500	-60.499588
805.664062	-60.742920
806.640625	-59.311901
807.617188	-59.485828
808.593750	-60.599632
809.570312	-58.733429
810.546875	-58.281155
811.523438	-59.156952
812.500000	-59.805298
813.476562	-60.508022
814.453125	-58.975220
815.429688	-59.676273
816.406250	-59.289948
817.382812	-59.321770
818.359375	-59.275173
819.335938	-60.919930
820.312500	-59.833939
821.289062	-61.076412
822.265625	-59.769672
823.242188	-59.991386
824.218750	-60.391163
825.195312	-60.132835
826.171875	-59.492065
827.148438	-58.483833
828.125000	-58.946941
829.101562	-58.876633
830.078125	-60.380646
831.054688	-59.307934
832.031250	-59.537708
833.007812	-61.353725
833.984375	-59.635899
834.960938	-59.850903
835.937500	-59.745094
836.914062	-59.162720
837.890625	-58.906113
838.867188	-60.185307
839.843750	-59.250072
840.820312	-59.769882
841.796875	-59.777885
842.773438	-60.506718
843.750000	-60.098145
844.726562	-59.936752
845.703125	-59.017479
846.679688	-58.189957
847.656250	-59.256084
848.632812	-59.390030
849.609375	-58.933891
850.585938	-59.915112
851.562500	-59.629112
852.539062	-59.102268
853.515625	-58.491524
854.492188	-58.396000
855.468750	-59.237431
856.445312	-60.195171
857.421875	-60.888851
858.398438	-59.734367
859.375000	-59.522572
860.351562	-58.061806
861.328125	-57.306511
862.304688	-58.442314
863.281250	-58.636581
864.257812	-57.971291
865.234375	-57.728546
866.210938	-58.096375
867.187500	-58.629948
868.164062	-58.016747
869.140625	-58.242847
870.117188	-58.770702
871.093750	-60.764038
872.070312	-60.614685
873.046875	-61.666325
874.023438	-61.005337
875.000000	-58.206795
875.976562	-58.942184
876.953125	-59.248402
877.929688	-59.088161
878.906250	-59.260971
879.882812	-59.365150
880.859375	-57.856094
881.835938	-58.321548
882.812500	-57.776531
883.789062	-57.788761
884.765625	-58.743828
885.742188	-58.443592
886.718750	-58.565605
887.695312	-57.747044
888.671875	-57.856312
889.648438	-59.031265
890.625000	-57.500835
891.601562	-59.037434
892.578125	-59.491856
893.554688	-60.096371
894.531250	-59.206944
895.507812	-58.568531
896.484375	-58.298676
897.460938	-59.663044
898.437500	-59.811546
899.414062	-59.555351
900.390625	-58.769604
901.367188	-58.405861
902.343750	-57.787712
903.320312	-58.577503
904.296875	-57.592884
905.273438	-58.949989
906.250000	-57.784061
907.226562	-57.701729
908.203125	-57.000385
909.179688	-56.098019
910.156250	-56.777523
911.132812	-57.470413
912.109375	-56.442493
913.085938	-58.342701
914.062500	-57.285038
915.039062	-57.149822
916.015625	-58.109303
916.992188	-57.191906
917.968750	-58.011288
918.945312	-57.865334
919.921875	-58.134800
920.898438	-58.534851
921.875000	-58.768932
922.851562	-57.082035
923.828125	-57.669548
924.804688	-57.990093
925.781250	-58.307377
926.757812	-57.521957
927.734375	-57.117111
928.710938	-58.016022
929.687500	-57.451023
930.664062	-57.969513
931.640625	-57.901848
932.617188	-56.985924
933.593750	-57.291870
934.570312	-58.306587
935.546875	-58.766109
936.523438	-59.338425
937.500000	-56.423721
938.476562	-58.242809
939.453125	-57.993534
940.429688	-57.832180
941.406250	-57.682163
942.382812	-58.150043
943.359375	-57.768749
944.335938	-57.391968
945.312500	-57.174725
946.289062	-58.772129
947.265625	-57.431973
948.242188	-58.117245
949.218750	-57.867592
950.195312	-58.365158
951.171875	-56.651802
952.148438	-56.838802
953.125000	-56.520622
954.101562	-58.409283
955.078125	-58.043549
956.054688	-56.726437
957.031250	-57.523716
958.007812	-55.992809
958.984375	-56.704666
959.960938	-57.032848
960.937500	-56.365032
961.914062	-57.345604
962.890625	-57.504086
963.867188	-58.019455
964.843750	-58.321938
965.820312	-55.775978
966.796875	-56.244499
967.773438	-56.790230
968.750000	-57.298927
969.726562	-57.145226
970.703125	-56.911495
971.679688	-57.662537
972.656250	-56.874935
973.632812	-55.734108
974.609375	-56.355938
975.585938	-56.986759
976.562500	-56.157486
977.539062	-57.736053
978.515625	-56.431473
979.492188	-56.974483
980.468750	-57.561401
981.445312	-56.996136
982.421875	-56.923737
983.398438	-58.010059
984.375000	-57.169579
985.351562	-57.863701
986.328125	-57.669144
987.304688	-58.183289
988.281250	-57.176838
989.257812	-56.359909
990.234375	-56.826420
991.210938	-56.442814
992.187500	-56.903999
993.164062	-57.556103
994.140625	-58.058426
995.117188	-57.818741
996.093750	-56.566353
997.070312	-57.120949
998.046875	-56.626923
999.023438	-56.576023
1000.000000	-56.213055
1000.976562	-56.500881
1001.953125	-55.622078
1002.929688	-56.584259
1003.906250	-55.380779
1004.882812	-57.349777
1005.859375	-58.042171
1006.835938	-57.577377
1007.812500	-58.821724
1008.789062	-57.393997
1009.765625	-57.106434
1010.742188	-57.586891
1011.718750	-57.100094
1012.695312	-57.070210
1013.671875	-56.968086
1014.648438	-54.722534
1015.625000	-56.285816
1016.601562	-55.228970
1017.578125	-55.128674
1018.554688	-57.969032
1019.531250	-56.038883
1020.507812	-55.234886
1021.484375	-54.678997
1022.460938	-53.547230
1023.437500	-53.588196
1024.414062	-57.307156
1025.390625	-56.273865
1026.367188	-57.317749
1027.343750	-56.222565
1028.320312	-57.211590
1029.296875	-56.436680
1030.273438	-56.950359
1031.250000	-56.411663
1032.226562	-55.404224
1033.203125	-56.296181
1034.179688	-55.833660
1035.156250	-56.020828
1036.132812	-55.907177
1037.109375	-55.260090
1038.085938	-55.150494
1039.062500	-56.753376
1040.039062	-54.727760
1041.015625	-56.063316
1041.992188	-56.569782
1042.968750	-55.606247
1043.945312	-55.744804
1044.921875	-54.435566
1045.898438	-56.103527
1046.875000	-56.210152
1047.851562	-55.252354
1048.828125	-56.706242
1049.804688	-57.179287
1050.781250	-58.272438
1051.757812	-58.219070
1052.734375	-57.571281
1053.710938	-55.652420
1054.687500	-56.398491
1055.664062	-56.302032
1056.640625	-54.058865
1057.617188	-53.927025
1058.593750	-52.630623
1059.570312	-55.056271
1060.546875	-53.761192
1061.523438	-54.131454
1062.500000	-54.938358
1063.476562	-54.207386
1064.453125	-55.136097
1065.429688	-54.699543
1066.406250	-54.290684
1067.382812	-56.670540
1068.359375	-56.567600
1069.335938	-56.716164
1070.312500	-56.001534
1071.289062	-56.405350
1072.265625	-56.936356
1073.242188	-55.806561
1074.218750	-55.913250
1075.195312	-57.067593
1076.171875	-56.706924
1077.148438	-56.925854
1078.125000	-57.472546
1079.101562	-55.345020
1080.078125	-54.399704
1081.054688	-53.148056
1082.031250	-54.494205
1083.007812	-54.313248
1083.984375	-54.289097
1084.960938	-54.344696
1085.937500	-54.202629
1086.914062	-55.638718
1087.890625	-54.926018
1088.867188	-56.171822
1089.843750	-56.492085
1090.820312	-55.754341
1091.796875	-56.427383
1092.773438	-57.080101
1093.750000	-57.335903
1094.726562	-55.591846
1095.703125	-56.157734
1096.679688	-57.448807
1097.656250	-55.763691
1098.632812	-56.286274
1099.609375	-56.368137
1100.585938	-54.704517
1101.562500	-54.861195
1102.539062	-55.074356
1103.515625	-54.540699
1104.492188	-54.437550
1105.468750	-54.881626
1106.445312	-54.009567
1107.421875	-56.062622
1108.398438	-55.955467
1109.375000	-57.547344
1110.351562	-56.381702
1111.328125	-55.917042
1112.304688	-56.670933
1113.281250	-56.459167
1114.257812	-55.209553
1115.234375	-56.387611
1116.210938	-56.244221
1117.187500	-57.382393
1118.164062	-55.301865
1119.140625	-55.716797
1120.117188	-56.422043
1121.093750	-57.040085
1122.070312	-55.573383
1123.046875	-55.262772
1124.023438	-54.900928
1125.000000	-53.969799
1125.976562	-55.173672
1126.953125	-55.921818
1127.929688	-54.992874
1128.906250	-54.549362
1129.882812	-55.562904
1130.859375	-55.489094
1131.835938	-56.447239
1132.812500	-57.628464
1133.789062	-56.791279
1134.765625	-55.665260
1135.742188	-56.168140
1136.718750	-56.487007
1137.695312	-55.382946
1138.671875	-56.403454
1139.648438	-56.798431
1140.625000	-56.797661
1141.601562	-56.126122
1142.578125	-53.639545
1143.554688	-54.162113
1144.531250	-54.880260
1145.507812	-56.823994
1146.484375	-54.816727
1147.460938	-55.398979
1148.437500	-55.698784
1149.414062	-54.916676
1150.390625	-57.036705
1151.367188	-54.924503
1152.343750	-58.340889
1153.320312	-57.248898
1154.296875	-57.537132
1155.273438	-56.299362
1156.250000	-57.693935
1157.226562	-58.426811
1158.203125	-57.847801
1159.179688	-57.476082
1160.156250	-56.184368
1161.132812	-55.663448
1162.109375	-55.970963
1163.085938	-56.432182
1164.062500	-54.997890
1165.039062	-56.868237
1166.015625	-55.045647
1166.992188	-56.571743
1167.968750	-55.722843
1168.945312	-54.902428
1169.921875	-55.415947
1170.898438	-56.619637
1171.875000	-57.675613
1172.851562	-58.088436
1173.828125	-56.327061
1174.804688	-57.723019
1175.781250	-56.744175
1176.757812	-56.302197
1177.734375	-57.698498
1178.710938	-58.206379
1179.687500	-56.392166
1180.664062	-57.124798
1181.640625	-56.979408
1182.617188	-57.241554
1183.593750	-56.996628
1184.570312	-56.420300
1185.546875	-56.629276
1186.523438	-56.299046
1187.500000	-58.192104
1188.476562	-57.183384
1189.453125	-55.909569
1190.429688	-55.799416
1191.406250	-57.753300
1192.382812	-57.500706
1193.359375	-58.004326
1194.335938	-56.951157
1195.312500	-57.269196
1196.289062	-57.492081
1197.265625	-57.601521
1198.242188	-57.237263
1199.218750	-57.653419
1200.195312	-57.638157
1201.171875	-56.715736
1202.148438	-57.807522
1203.125000	-58.962433
1204.101562	-58.231796
1205.078125	-58.621609
1206.054688	-58.184887
1207.031250	-57.589874
1208.007812	-57.202827
1208.984375	-57.089619
1209.960938	-57.957443
1210.937500	-57.653801
1211.914062	-56.742012
1212.890625	-57.391342
1213.867188	-56.743019
1214.843750	-56.844658
1215.820312	-57.075375
1216.796875	-57.736523
1217.773438	-58.530075
1218.750000	-57.569706
1219.726562	-58.449249
1220.703125	-56.730061
1221.679688	-57.191395
1222.656250	-57.890472
1223.632812	-58.323128
1224.609375	-57.686417
1225.585938	-57.718018
1226.562500	-56.063637
1227.539062	-56.535316
1228.515625	-57.419231
1229.492188	-57.831177
1230.468750	-58.433144
1231.445312	-57.894806
1232.421875	-58.943577
1233.398438	-57.745934
1234.375000	-57.138966
1235.351562	-56.033047
1236.328125	-58.856930
1237.304688	-57.543297
1238.281250	-58.203453
1239.257812	-57.666122
1240.234375	-58.141693
1241.210938	-56.772610
1242.187500	-57.393902
1243.164062	-58.248356
1244.140625	-58.904068
1245.117188	-58.483109
1246.093750	-57.363651
1247.070312	-58.051472
1248.046875	-57.537479
1249.023438	-57.290779
1250.000000	-57.189129
1250.976562	-57.056820
1251.953125	-57.006508
1252.929688	-58.252918
1253.906250	-57.849491
1254.882812	-57.588795
1255.859375	-58.737919
1256.835938	-59.541405
1257.812500	-59.051140
1258.789062	-59.843048
1259.765625	-58.385178
1260.742188	-57.771984
1261.718750	-57.534599
1262.695312	-58.338001
1263.671875	-59.022488
1264.648438	-59.375526
1265.625000	-57.851868
1266.601562	-58.360432
1267.578125	-59.277370
1268.554688	-57.840107
1269.531250	-59.264271
1270.507812	-58.222301
1271.484375	-57.593937
1272.460938	-58.608139
1273.437500	-57.384811
1274.414062	-56.557106
1275.390625	-57.083767
1276.367188	-57.612068
1277.343750	-60.047607
1278.320312	-60.176571
1279.296875	-58.284130
1280.273438	-57.404213
1281.250000	-58.052246
1282.226562	-57.563824
1283.203125	-57.243427
1284.179688	-57.330578
1285.156250	-58.785423
1286.132812	-58.419476
1287.109375	-59.829594
1288.085938	-59.297947
1289.062500	-58.689987
1290.039062	-59.044247
1291.015625	-57.990589
1291.992188	-57.535435
1292.968750	-57.793678
1293.945312	-58.975040
1294.921875	-58.471771
1295.898438	-57.689972
1296.875000	-58.554886
1297.851562	-57.488148
1298.828125	-57.782478
1299.804688	-57.713074
1300.781250	-58.199692
1301.757812	-58.671474
1302.734375	-58.454796
1303.710938	-59.817772
1304.687500	-58.975533
1305.664062	-56.415100
1306.640625	-56.580708
1307.617188	-59.022717
1308.593750	-58.876457
1309.570312	-58.489872
1310.546875	-58.191570
1311.523438	-58.196793
1312.500000	-58.109333
1313.476562	-58.640656
1314.453125	-56.842979
1315.429688	-59.143784
1316.406250	-58.003235
1317.382812	-59.046013
1318.359375	-60.443699
1319.335938	-59.026688
1320.312500	-57.990082
1321.289062	-58.475044
1322.265625	-56.724247
1323.242188	-55.512184
1324.218750	-57.837193
1325.195312	-56.232914
1326.171875	-57.281124
1327.148438	-56.802872
1328.125000	-56.315533
1329.101562	-57.758938
1330.078125	-56.712391
1331.054688	-57.300751
1332.031250	-59.056129
1333.007812	-57.208466
1333.984375	-57.838799
1334.960938	-58.170891
1335.937500	-56.753727
1336.914062	-57.721252
1337.890625	-56.630817
1338.867188	-58.573502
1339.843750	-58.134567
1340.820312	-57.392212
1341.796875	-58.276875
1342.773438	-56.294453
1343.750000	-57.919430
1344.726562	-57.284191
1345.703125	-56.086830
1346.679688	-57.856922
1347.656250	-56.830704
1348.632812	-58.106133
1349.609375	-58.158199
1350.585938	-57.297565
1351.562500	-57.849319
1352.539062	-57.780251
1353.515625	-56.486660
1354.492188	-57.388428
1355.468750	-58.980228
1356.445312	-58.371670
1357.421875	-56.023785
1358.398438	-56.267017
1359.375000	-57.870052
1360.351562	-57.636341
1361.328125	-57.244312
1362.304688	-55.245155
1363.281250	-56.831894
1364.257812	-55.726803
1365.234375	-57.151939
1366.210938	-54.433296
1367.187500	-53.825623
1368.164062	-56.259613
1369.140625	-54.903908
1370.117188	-55.831367
1371.093750	-55.432095
1372.070312	-56.803173
1373.046875	-56.665905
1374.023438	-55.804287
1375.000000	-55.676033
1375.976562	-55.844971
1376.953125	-57.035091
1377.929688	-56.313320
1378.906250	-54.405743
1379.882812	-55.864075
1380.859375	-57.531693
1381.835938	-55.615879
1382.812500	-56.048901
1383.789062	-54.694828
1384.765625	-55.912617
1385.742188	-54.743801
1386.718750	-54.189159
1387.695312	-54.453186
1388.671875	-56.432388
1389.648438	-54.783073
1390.625000	-54.445793
1391.601562	-54.319599
1392.578125	-53.901478
1393.554688	-55.551006
1394.531250	-54.633579
1395.507812	-56.343605
1396.484375	-55.475998
1397.460938	-54.286396
1398.437500	-55.550934
1399.414062	-53.669285
1400.390625	-55.787601
1401.367188	-54.941120
1402.343750	-55.431568
1403.320312	-54.277973
1404.296875	-56.107357
1405.273438	-56.297047
1406.250000	-54.541920
1407.226562	-53.351646
1408.203125	-54.623119
1409.179688	-52.720436
1410.156250	-54.647449
1411.132812	-55.279259
1412.109375	-53.936741
1413.085938	-54.101738
1414.062500	-53.993771
1415.039062	-54.879192
1416.015625	-52.726910
1416.992188	-53.940392
1417.968750	-54.643097
1418.945312	-53.178413
1419.921875	-54.916359
1420.898438	-53.930733
1421.875000	-56.753994
1422.851562	-54.281456
1423.828125	-54.423626
1424.804688	-55.696587
1425.781250	-55.175587
1426.757812	-53.576054
1427.734375	-55.310543
1428.710938	-55.165894
1429.687500	-53.791580
1430.664062	-54.558109
1431.640625	-53.379040
1432.617188	-53.036167
1433.593750	-53.107822
1434.570312	-53.633308
1435.546875	-52.030609
1436.523438	-50.737793
1437.500000	-53.538887
1438.476562	-53.587982
1439.453125	-52.381481
1440.429688	-53.707878
1441.406250	-52.783466
1442.382812	-53.772457
1443.359375	-54.034073
1444.335938	-55.525051
1445.312500	-54.926762
1446.289062	-54.705734
1447.265625	-53.537407
1448.242188	-54.623352
1449.218750	-53.812431
1450.195312	-53.090546
1451.171875	-54.748974
1452.148438	-53.505985
1453.125000	-52.253410
1454.101562	-51.534393
1455.078125	-51.086628
1456.054688	-52.694710
1457.031250	-53.908161
1458.007812	-53.852123
1458.984375	-53.258358
1459.960938	-52.665840
1460.937500	-53.093697
1461.914062	-53.499023
1462.890625	-54.790680
1463.867188	-54.430180
1464.843750	-55.051853
1465.820312	-53.475002
1466.796875	-53.857151
1467.773438	-54.026459
1468.750000	-52.415100
1469.726562	-51.179710
1470.703125	-52.714066
1471.679688	-53.803967
1472.656250	-53.169838
1473.632812	-54.345127
1474.609375	-51.466419
1475.585938	-51.283455
1476.562500	-53.117115
1477.539062	-53.439323
1478.515625	-52.809708
1479.492188	-50.965645
1480.468750	-54.160168
1481.445312	-55.040760
1482.421875	-53.935188
1483.398438	-51.720913
1484.375000	-52.847496
1485.351562	-53.374695
1486.328125	-54.346031
1487.304688	-51.490681
1488.281250	-50.886456
1489.257812	-51.383202
1490.234375	-51.355534
1491.210938	-53.043728
1492.187500	-51.864384
1493.164062	-52.339424
1494.140625	-52.134094
1495.117188	-52.354618
1496.093750	-51.096844
1497.070312	-51.404408
1498.046875	-52.119328
1499.023438	-52.129429
1500.000000	-53.477795
1500.976562	-52.903557
1501.953125	-52.973972
1502.929688	-54.703934
1503.906250	-53.548016
1504.882812	-53.486256
1505.859375	-53.909824
1506.835938	-52.613007
1507.812500	-54.010124
1508.789062	-52.558781
1509.765625	-52.231056
1510.742188	-52.395210
1511.718750	-52.079403
1512.695312	-53.066307
1513.671875	-51.270660
1514.648438	-51.481979
1515.625000	-53.155704
1516.601562	-51.919731
1517.578125	-51.449291
1518.554688	-52.060539
1519.531250	-52.158379
1520.507812	-52.610222
1521.484375	-51.307735
1522.460938	-53.322563
1523.437500	-53.944801
1524.414062	-52.623158
1525.390625	-52.824699
1526.367188	-53.502815
1527.343750	-51.929173
1528.320312	-53.836323
1529.296875	-53.133518
1530.273438	-50.747589
1531.250000	-51.263741
1532.226562	-50.433624
1533.203125	-50.829556
1534.179688	-50.038441
1535.156250	-51.393764
1536.132812	-52.303959
1537.109375	-51.166042
1538.085938	-49.555840
1539.062500	-50.566082
1540.039062	-50.485176
1541.015625	-50.916943
1541.992188	-51.945332
1542.968750	-53.971153
1543.945312	-51.400356
1544.921875	-51.789715
1545.898438	-52.155247
1546.875000	-52.119839
1547.851562	-51.836880
1548.828125	-52.622833
1549.804688	-51.814480
1550.781250	-52.029655
1551.757812	-51.200897
1552.734375	-50.938450
1553.710938	-52.151783
1554.687500	-53.042347
1555.664062	-52.155643
1556.640625	-50.952538
1557.617188	-51.881599
1558.593750	-51.528145
1559.570312	-53.132603
1560.546875	-51.033573
1561.523438	-50.599300
1562.500000	-50.071346
1563.476562	-51.130875
1564.453125	-52.299011
1565.429688	-52.661327
1566.406250	-51.061291
1567.382812	-50.448097
1568.359375	-51.385975
1569.335938	-50.844410
1570.312500	-52.305687
1571.289062	-51.693829
1572.265625	-50.647190
1573.242188	-51.709206
1574.218750	-51.895248
1575.195312	-52.222832
1576.171875	-51.647087
1577.148438	-51.064453
1578.125000	-52.391087
1579.101562	-54.036259
1580.078125	-53.028587
1581.054688	-51.592358
1582.031250	-52.062023
1583.007812	-52.226032
1583.984375	-51.935726
1584.960938	-52.809845
1585.937500	-52.032410
1586.914062	-52.097855
1587.890625	-54.363377
1588.867188	-52.535202
1589.843750	-51.600887
1590.820312	-50.614155
1591.796875	-51.104313
1592.773438	-53.327194
1593.750000	-54.403271
1594.726562	-51.931351
1595.703125	-51.730370
1596.679688	-51.776012
1597.656250	-53.490299
1598.632812	-54.389652
1599.609375	-53.290096
1600.585938	-51.275230
1601.562500	-52.418125
1602.539062	-51.710026
1603.515625	-51.472065
1604.492188	-52.781734
1605.468750	-51.729275
1606.445312	-52.219868
1607.421875	-51.018959
1608.398438	-51.870609
1609.375000	-51.635689
1610.351562	-51.758755
1611.328125	-51.694271
1612.304688	-53.518585
1613.281250	-54.261063
1614.257812	-52.752193
1615.234375	-53.556343
1616.210938	-52.726421
1617.187500	-53.177731
1618.164062	-52.173138
1619.140625	-54.164047
1620.117188	-54.098217
1621.093750	-54.763401
1622.070312	-54.390190
1623.046875	-53.221638
1624.023438	-52.556995
1625.000000	-52.962013
1625.976562	-52.742630
1626.953125	-52.899773
1627.929688	-53.236237
1628.906250	-53.875515
1629.882812	-53.214581
1630.859375	-54.366806
1631.835938	-54.869789
1632.812500	-54.268406
1633.789062	-54.381237
1634.765625	-53.781452
1635.742188	-54.868599
1636.718750	-55.338989
1637.695312	-55.295681
1638.671875	-54.742523
1639.648438	-53.827694
1640.625000	-54.082207
1641.601562	-53.792149
1642.578125	-53.721066
1643.554688	-53.595089
1644.531250	-52.956429
1645.507812	-52.222401
1646.484375	-53.008591
1647.460938	-53.377827
1648.437500	-52.615372
1649.414062	-53.205147
1650.390625	-52.151196
1651.367188	-53.057117
1652.343750	-54.234390
1653.320312	-53.033978
1654.296875	-54.557571
1655.273438	-54.888271
1656.250000	-54.405376
1657.226562	-54.543785
1658.203125	-55.438679
1659.179688	-54.438335
1660.156250	-52.804829
1661.132812	-53.396145
1662.109375	-54.833790
1663.085938	-54.541031
1664.062500	-53.783287
1665.039062	-53.030735
1666.015625	-53.285763
1666.992188	-53.429993
1667.968750	-53.005566
1668.945312	-53.226189
1669.921875	-53.615967
1670.898438	-51.924286
1671.875000	-53.865211
1672.851562	-54.131207
1673.828125	-55.013035
1674.804688	-55.135967
1675.781250	-54.639416
1676.757812	-55.019924
1677.734375	-55.546551
1678.710938	-55.061943
1679.687500	-55.118938
1680.664062	-54.331860
1681.640625	-54.352142
1682.617188	-55.238644
1683.593750	-55.269974
1684.570312	-54.548832
1685.546875	-55.378918
1686.523438	-54.674889
1687.500000	-55.604195
1688.476562	-53.520649
1689.453125	-53.491024
1690.429688	-53.351360
1691.406250	-53.226486
1692.382812	-54.410255
1693.359375	-55.790611
1694.335938	-56.640133
1695.312500	-55.597820
1696.289062	-56.277393
1697.265625	-56.021160
1698.242188	-57.005203
1699.218750	-54.694843
1700.195312	-55.385532
1701.171875	-56.625774
1702.148438	-54.063137
1703.125000	-55.275795
1704.101562	-55.951790
1705.078125	-55.188118
1706.054688	-55.664654
1707.031250	-54.229832
1708.007812	-54.707851
1708.984375	-54.061623
1709.960938	-55.057011
1710.937500	-54.732155
1711.914062	-54.285107
1712.890625	-54.732708
1713.867188	-54.003407
1714.843750	-56.579105
1715.820312	-55.652164
1716.796875	-55.798241
1717.773438	-54.657272
1718.750000	-53.467068
1719.726562	-55.784389
1720.703125	-55.920567
1721.679688	-55.339073
1722.656250	-56.581123
1723.632812	-55.697105
1724.609375	-54.266159
1725.585938	-55.055855
1726.562500	-54.331673
1727.539062	-54.563473
1728.515625	-55.694603
1729.492188	-57.019520
1730.468750	-55.432941
1731.445312	-55.761242
1732.421875	-56.567963
1733.398438	-55.554359
1734.375000	-54.616249
1735.351562	-54.754536
1736.328125	-55.325264
1737.304688	-56.078289
1738.281250	-55.571114
1739.257812	-54.117859
1740.234375	-54.863487
1741.210938	-55.248062
1742.187500	-57.811882
1743.164062	-57.774982
1744.140625	-55.386276
1745.117188	-56.852219
1746.093750	-57.612003
1747.070312	-57.780952
1748.046875	-55.981194
1749.023438	-57.380806
1750.000000	-55.987896
1750.976562	-55.920116
1751.953125	-55.631489
1752.929688	-56.618050
1753.906250	-55.186489
1754.882812	-55.671959
1755.859375	-55.057014
1756.835938	-55.434299
1757.812500	-55.385735
1758.789062	-57.216015
1759.765625	-56.205334
1760.742188	-55.269218
1761.718750	-57.062340
1762.695312	-56.223991
1763.671875	-57.988426
1764.648438	-55.880775
1765.625000	-55.457729
1766.601562	-54.990730
1767.578125	-56.873173
1768.554688	-56.610565
1769.531250	-56.179855
1770.507812	-56.109932
1771.484375	-56.970863
1772.460938	-54.829582
1773.437500	-55.684101
1774.414062	-57.251736
1775.390625	-55.653313
1776.367188	-55.080940
1777.343750	-55.319008
1778.320312	-54.850410
1779.296875	-55.200558
1780.273438	-56.038010
1781.250000	-55.868965
1782.226562	-54.069664
1783.203125	-57.604156
1784.179688	-56.239086
1785.156250	-55.933643
1786.132812	-56.543247
1787.109375	-56.472588
1788.085938	-56.843880
1789.062500	-56.385788
1790.039062	-55.421883
1791.015625	-55.785004
1791.992188	-55.487446
1792.968750	-54.424168
1793.945312	-54.548290
1794.921875	-54.528004
1795.898438	-57.063915
1796.875000	-58.493816
1797.851562	-57.262325
1798.828125	-56.651268
1799.804688	-55.688545
1800.781250	-56.500336
1801.757812	-56.501072
1802.734375	-55.647018
1803.710938	-55.729687
1804.687500	-56.459614
1805.664062	-54.906445
1806.640625	-55.772022
1807.617188	-55.912125
1808.593750	-55.480350
1809.570312	-56.036583
1810.546875	-55.068707
1811.523438	-55.986862
1812.500000	-56.532795
1813.476562	-54.846577
1814.453125	-55.973473
1815.429688	-56.621326
1816.406250	-56.487671
1817.382812	-57.013668
1818.359375	-56.761768
1819.335938	-56.735558
1820.312500	-56.376438
1821.289062	-56.435555
1822.265625	-56.066238
1823.242188	-56.417152
1824.218750	-55.176151
1825.195312	-54.753262
1826.171875	-53.296558
1827.148438	-54.770016
1828.125000	-55.016438
1829.101562	-54.429630
1830.078125	-57.549889
1831.054688	-56.786648
1832.031250	-56.489380
1833.007812	-56.619621
1833.984375	-55.813553
1834.960938	-55.867840
1835.937500	-56.306587
1836.914062	-56.261879
1837.890625	-56.171638
1838.867188	-54.365856
1839.843750	-55.986156
1840.820312	-56.091389
1841.796875	-55.605068
1842.773438	-55.087021
1843.750000	-55.145103
1844.726562	-56.208553
1845.703125	-55.461113
1846.679688	-55.790241
1847.656250	-57.482544
1848.632812	-57.123329
1849.609375	-55.467415
1850.585938	-54.133945
1851.562500	-56.544460
1852.539062	-55.191051
1853.515625	-56.316067
1854.492188	-55.889301
1855.468750	-56.379784
1856.445312	-54.938484
1857.421875	-53.508430
1858.398438	-55.267632
1859.375000	-55.361908
1860.351562	-55.717026
1861.328125	-54.599453
1862.304688	-54.372044
1863.281250	-56.119381
1864.257812	-54.176712
1865.234375	-54.174450
1866.210938	-55.655827
1867.187500	-55.661358
1868.164062	-53.905640
1869.140625	-54.384995
1870.117188	-56.242428
1871.093750	-54.915272
1872.070312	-55.124191
1873.046875	-55.476231
1874.023438	-55.240379
1875.000000	-54.446789
1875.976562	-53.965195
1876.953125	-53.621777
1877.929688	-55.946033
1878.906250	-56.423897
1879.882812	-54.722015
1880.859375	-55.180233
1881.835938	-55.749561
1882.812500	-55.239273
1883.789062	-56.588390
1884.765625	-55.859009
1885.742188	-55.770199
1886.718750	-56.290131
1887.695312	-55.893780
1888.671875	-55.528023
1889.648438	-56.108250
1890.625000	-54.760914
1891.601562	-55.621944
1892.578125	-54.778492
1893.554688	-54.856647
1894.531250	-53.878361
1895.507812	-54.383888
1896.484375	-54.841713
1897.460938	-54.385380
1898.437500	-54.291779
1899.414062	-55.190975
1900.390625	-55.163109
1901.367188	-54.515594
1902.343750	-54.583008
1903.320312	-52.971333
1904.296875	-52.934757
1905.273438	-54.593884
1906.250000	-54.379555
1907.226562	-55.044083
1908.203125	-55.342457
1909.179688	-55.726574
1910.156250	-55.236347
1911.132812	-55.519482
1912.109375	-55.625023
1913.085938	-53.645512
1914.062500	-51.881176
1915.039062	-54.953503
1916.015625	-54.281509
1916.992188	-54.758339
1917.968750	-54.278664
1918.945312	-53.710766
1919.921875	-54.094528
1920.898438	-54.633770
1921.875000	-55.133507
1922.851562	-54.199497
1923.828125	-55.079105
1924.804688	-53.330395
1925.781250	-54.774666
1926.757812	-56.501709
1927.734375	-54.489246
1928.710938	-55.758915
1929.687500	-53.229897
1930.664062	-55.334309
1931.640625	-53.399696
1932.617188	-54.704494
1933.593750	-54.530247
1934.570312	-53.318592
1935.546875	-54.396507
1936.523438	-54.550709
1937.500000	-53.400665
1938.476562	-52.990646
1939.453125	-55.819809
1940.429688	-54.790012
1941.406250	-54.190895
1942.382812	-54.574203
1943.359375	-54.687675
1944.335938	-55.061905
1945.312500	-54.409012
1946.289062	-53.978779
1947.265625	-53.821678
1948.242188	-52.612896
1949.218750	-54.507103
1950.195312	-53.217480
1951.171875	-53.190727
1952.148438	-52.481068
1953.125000	-53.225170
1954.101562	-52.319778
1955.078125	-53.709633
1956.054688	-55.076015
1957.031250	-53.371605
1958.007812	-54.225800
1958.984375	-52.886414
1959.960938	-53.777679
1960.937500	-54.389408
1961.914062	-53.750462
1962.890625	-54.384293
1963.867188	-54.276920
1964.843750	-54.105312
1965.820312	-52.793774
1966.796875	-53.896523
1967.773438	-55.108280
1968.750000	-54.788300
1969.726562	-53.623753
1970.703125	-51.792034
1971.679688	-52.904198
1972.656250	-53.290230
1973.632812	-52.311153
1974.609375	-53.976936
1975.585938	-52.723019
1976.562500	-52.599667
1977.539062	-51.458858
1978.515625	-52.679382
1979.492188	-53.045452
1980.468750	-54.397266
1981.445312	-52.130363
1982.421875	-52.117020
1983.398438	-53.034111
1984.375000	-54.212017
1985.351562	-53.638885
1986.328125	-51.564568
1987.304688	-50.207943
1988.281250	-52.061703
1989.257812	-53.099571
1990.234375	-52.702248
1991.210938	-51.397846
1992.187500	-51.515060
1993.164062	-51.376396
1994.140625	-51.311092
1995.117188	-51.680077
1996.093750	-51.130558
1997.070312	-51.077862
1998.046875	-50.421291
1999.023438	-51.948483
2000.000000	-53.014465
2000.976562	-51.406891
2001.953125	-50.902271
2002.929688	-52.804607
2003.906250	-53.547146
2004.882812	-52.729748
2005.859375	-53.040806
2006.835938	-51.267796
2007.812500	-51.732197
2008.789062	-51.461601
2009.765625	-50.035130
2010.742188	-52.065079
2011.718750	-52.159058
2012.695312	-49.827496
2013.671875	-50.611191
2014.648438	-48.171345
2015.625000	-49.926861
2016.601562	-49.239414
2017.578125	-50.102520
2018.554688	-51.678898
2019.531250	-48.720036
2020.507812	-49.323727
2021.484375	-49.965656
2022.460938	-50.269039
2023.437500	-50.633255
2024.414062	-49.153587
2025.390625	-51.120831
2026.367188	-49.346451
2027.343750	-49.552929
2028.320312	-48.445969
2029.296875	-49.070591
2030.273438	-48.273724
2031.250000	-48.660862
2032.226562	-47.889973
2033.203125	-48.016216
2034.179688	-47.396797
2035.156250	-47.597115
2036.132812	-48.565285
2037.109375	-46.538513
2038.085938	-47.155952
2039.062500	-45.802341
2040.039062	-46.877083
2041.015625	-47.098289
2041.992188	-48.089966
2042.968750	-47.489616
2043.945312	-47.973442
2044.921875	-47.666916
2045.898438	-49.338116
2046.875000	-46.736366
2047.851562	-47.288601
2048.828125	-46.622337
2049.804688	-45.958027
2050.781250	-46.063320
2051.757812	-48.358410
2052.734375	-46.680389
2053.710938	-46.061199
2054.687500	-47.141468
2055.664062	-46.277058
2056.640625	-45.741898
2057.617188	-45.626572
2058.593750	-47.044460
2059.570312	-44.809906
2060.546875	-44.754578
2061.523438	-44.030941
2062.500000	-44.548588
2063.476562	-46.604298
2064.453125	-46.752995
2065.429688	-47.201565
2066.406250	-45.659260
2067.382812	-46.984459
2068.359375	-44.829903
2069.335938	-44.968914
2070.312500	-45.205509
2071.289062	-45.571194
2072.265625	-46.805916
2073.242188	-47.926041
2074.218750	-47.615990
2075.195312	-48.313393
2076.171875	-47.891132
2077.148438	-46.323910
2078.125000	-45.626743
2079.101562	-45.278267
2080.078125	-46.001881
2081.054688	-46.721703
2082.031250	-46.358189
2083.007812	-46.863483
2083.984375	-44.967697
2084.960938	-46.034184
2085.937500	-46.753059
2086.914062	-46.054665
2087.890625	-47.905815
2088.867188	-45.867542
2089.843750	-45.423985
2090.820312	-46.099327
2091.796875	-48.666096
2092.773438	-46.776726
2093.750000	-47.301350
2094.726562	-48.342205
2095.703125	-46.915871
2096.679688	-46.188076
2097.656250	-48.184219
2098.632812	-48.837696
2099.609375	-47.571125
2100.585938	-47.951309
2101.562500	-47.644367
2102.539062	-46.465588
2103.515625	-46.344074
2104.492188	-46.631523
2105.468750	-47.525177
2106.445312	-46.555607
2107.421875	-47.368999
2108.398438	-49.023151
2109.375000	-48.432121
2110.351562	-46.501774
2111.328125	-46.693821
2112.304688	-47.773090
2113.281250	-49.472095
2114.257812	-48.457260
2115.234375	-49.676144
2116.210938	-47.978985
2117.187500	-48.087360
2118.164062	-49.966602
2119.140625	-49.651726
2120.117188	-47.893505
2121.093750	-48.649605
2122.070312	-47.917820
2123.046875	-49.315628
2124.023438	-49.497231
2125.000000	-49.649345
2125.976562	-48.421234
2126.953125	-49.072113
2127.929688	-48.833530
2128.906250	-48.292580
2129.882812	-47.556122
2130.859375	-48.658756
2131.835938	-47.966549
2132.812500	-48.755226
2133.789062	-48.325363
2134.765625	-48.849167
2135.742188	-49.254715
2136.718750	-50.679459
2137.695312	-50.188290
2138.671875	-49.742428
2139.648438	-50.078625
2140.625000	-50.145157
2141.601562	-48.706657
2142.578125	-49.650330
2143.554688	-51.155621
2144.531250	-49.197910
2145.507812	-50.494816
2146.484375	-50.803822
2147.460938	-50.460289
2148.437500	-50.433792
2149.414062	-49.692120
2150.390625	-51.797993
2151.367188	-48.638332
2152.343750	-49.279484
2153.320312	-50.411896
2154.296875	-50.483597
2155.273438	-50.981327
2156.250000	-51.016396
2157.226562	-51.949169
2158.203125	-52.122692
2159.179688	-50.942715
2160.156250	-52.454285
2161.132812	-51.815121
2162.109375	-51.489544
2163.085938	-52.474190
2164.062500	-52.661114
2165.039062	-52.573219
2166.015625	-52.088760
2166.992188	-52.634888
2167.968750	-51.368256
2168.945312	-50.759060
2169.921875	-51.958057
2170.898438	-51.543457
2171.875000	-50.668171
2172.851562	-50.814316
2173.828125	-52.253876
2174.804688	-50.827301
2175.781250	-51.623241
2176.757812	-50.956165
2177.734375	-53.710278
2178.710938	-52.442402
2179.687500	-53.317535
2180.664062	-51.797691
2181.640625	-51.586143
2182.617188	-52.596260
2183.593750	-51.832481
2184.570312	-50.097393
2185.546875	-51.833096
2186.523438	-53.503883
2187.500000	-52.275646
2188.476562	-52.679768
2189.453125	-52.152328
2190.429688	-53.299042
2191.406250	-53.199780
2192.382812	-51.630184
2193.359375	-51.223137
2194.335938	-52.744717
2195.312500	-52.855930
2196.289062	-52.932907
2197.265625	-52.666809
2198.242188	-54.798668
2199.218750	-53.772984
2200.195312	-53.010410
2201.171875	-53.902950
2202.148438	-53.534748
2203.125000	-55.289055
2204.101562	-54.870171
2205.078125	-55.051064
2206.054688	-52.373196
2207.031250	-53.651779
2208.007812	-53.289616
2208.984375	-52.886456
2209.960938	-53.839878
2210.937500	-54.610935
2211.914062	-52.738708
2212.890625	-52.906326
2213.867188	-53.545479
2214.843750	-54.121368
2215.820312	-53.253033
2216.796875	-53.724449
2217.773438	-55.910210
2218.750000	-52.488865
2219.726562	-51.870354
2220.703125	-54.128094
2221.679688	-53.797607
2222.656250	-53.711136
2223.632812	-54.158489
2224.609375	-53.582039
2225.585938	-53.400883
2226.562500	-52.849915
2227.539062	-53.060280
2228.515625	-54.200294
2229.492188	-54.255703
2230.468750	-54.110092
2231.445312	-53.237774
2232.421875	-52.720703
2233.398438	-53.920723
2234.375000	-53.113743
2235.351562	-53.585682
2236.328125	-52.938751
2237.304688	-52.771828
2238.281250	-54.626312
2239.257812	-54.398834
2240.234375	-55.490437
2241.210938	-53.567303
2242.187500	-54.064240
2243.164062	-54.223152
2244.140625	-54.970787
2245.117188	-53.709026
2246.093750	-53.297646
2247.070312	-54.171055
2248.046875	-53.502800
2249.023438	-54.828857
2250.000000	-54.924923
2250.976562	-54.791550
2251.953125	-54.999489
2252.929688	-55.751732
2253.906250	-54.568184
2254.882812	-53.883636
2255.859375	-54.862801
2256.835938	-53.828896
2257.812500	-54.117836
2258.789062	-54.974007
2259.765625	-54.416000
2260.742188	-55.843700
2261.718750	-53.376312
2262.695312	-53.830437
2263.671875	-54.789005
2264.648438	-52.958031
2265.625000	-54.149513
2266.601562	-54.713200
2267.578125	-55.056965
2268.554688	-56.170635
2269.531250	-56.090038
2270.507812	-56.892273
2271.484375	-55.716969
2272.460938	-54.785225
2273.437500	-54.475834
2274.414062	-53.646435
2275.390625	-54.086536
2276.367188	-55.204327
2277.343750	-55.568729
2278.320312	-55.658741
2279.296875	-54.514786
2280.273438	-55.714085
2281.250000	-55.679272
2282.226562	-54.784714
2283.203125	-56.279144
2284.179688	-55.383121
2285.156250	-55.297691
2286.132812	-55.847198
2287.109375	-55.063869
2288.085938	-55.649853
2289.062500	-55.655945
2290.039062	-54.467178
2291.015625	-55.572418
2291.992188	-56.537071
2292.968750	-55.730309
2293.945312	-55.188171
2294.921875	-56.641796
2295.898438	-55.256683
2296.875000	-55.237328
2297.851562	-54.065540
2298.828125	-55.142265
2299.804688	-56.649166
2300.781250	-56.850338
2301.757812	-55.328045
2302.734375	-55.591625
2303.710938	-55.186756
2304.687500	-54.827278
2305.664062	-56.015835
2306.640625	-55.504959
2307.617188	-54.620777
2308.593750	-54.213356
2309.570312	-55.849537
2310.546875	-53.319637
2311.523438	-55.429775
2312.500000	-54.563042
2313.476562	-55.595291
2314.453125	-56.398350
2315.429688	-57.611477
2316.406250	-56.422874
2317.382812	-54.451286
2318.359375	-55.382629
2319.335938	-57.054863
2320.312500	-55.365719
2321.289062	-54.358150
2322.265625	-56.171757
2323.242188	-54.937572
2324.218750	-54.904144
2325.195312	-56.342777
2326.171875	-55.845222
2327.148438	-53.726440
2328.125000	-54.754169
2329.101562	-55.096439
2330.078125	-54.331013
2331.054688	-54.373718
2332.031250	-54.577461
2333.007812	-55.266167
2333.984375	-55.934795
2334.960938	-54.830627
2335.937500	-54.454918
2336.914062	-53.125835
2337.890625	-54.932930
2338.867188	-55.362980
2339.843750	-53.062393
2340.820312	-55.839405
2341.796875	-54.601837
2342.773438	-55.161072
2343.750000	-54.837662
2344.726562	-54.028904
2345.703125	-54.497429
2346.679688	-53.660919
2347.656250	-54.045189
2348.632812	-53.953033
2349.609375	-53.705856
2350.585938	-53.979641
2351.562500	-55.172180
2352.539062	-53.358112
2353.515625	-54.789124
2354.492188	-55.304565
2355.468750	-54.269344
2356.445312	-54.343639
2357.421875	-53.086246
2358.398438	-55.041897
2359.375000	-56.465595
2360.351562	-55.419994
2361.328125	-54.882347
2362.304688	-55.069946
2363.281250	-54.264450
2364.257812	-57.675507
2365.234375	-54.707020
2366.210938	-53.590870
2367.187500	-53.420578
2368.164062	-54.367374
2369.140625	-53.999111
2370.117188	-54.946308
2371.093750	-54.071602
2372.070312	-54.240162
2373.046875	-53.973080
2374.023438	-53.757622
2375.000000	-53.014198
2375.976562	-54.200554
2376.953125	-55.824139
2377.929688	-54.464077
2378.906250	-55.656963
2379.882812	-56.220459
2380.859375	-53.692253
2381.835938	-56.067337
2382.812500	-55.340202
2383.789062	-55.375668
2384.765625	-54.145981
2385.742188	-53.851185
2386.718750	-54.267395
2387.695312	-53.469929
2388.671875	-53.220104
2389.648438	-53.757000
2390.625000	-52.390892
2391.601562	-53.350487
2392.578125	-54.498024
2393.554688	-53.579643
2394.531250	-52.779800
2395.507812	-54.310665
2396.484375	-53.059338
2397.460938	-51.745865
2398.437500	-53.254894
2399.414062	-55.440563
2400.390625	-52.760830
2401.367188	-52.441307
2402.343750	-53.735477
2403.320312	-52.386158
2404.296875	-53.071392
2405.273438	-52.750599
2406.250000	-52.304485
2407.226562	-51.863750
2408.203125	-52.127026
2409.179688	-53.134644
2410.156250	-53.443184
2411.132812	-53.703697
2412.109375	-51.942577
2413.085938	-53.579224
2414.062500	-53.481670
2415.039062	-51.135521
2416.015625	-51.863136
2416.992188	-51.513672
2417.968750	-51.327869
2418.945312	-52.819115
2419.921875	-53.461731
2420.898438	-54.034096
2421.875000	-53.893799
2422.851562	-51.385445
2423.828125	-52.627064
2424.804688	-53.544498
2425.781250	-53.232101
2426.757812	-52.964821
2427.734375	-52.630314
2428.710938	-53.763924
2429.687500	-53.257977
2430.664062	-54.210800
2431.640625	-51.291698
2432.617188	-51.831814
2433.593750	-52.657993
2434.570312	-51.907253
2435.546875	-52.382122
2436.523438	-52.772568
2437.500000	-52.263687
2438.476562	-52.886379
2439.453125	-52.319134
2440.429688	-52.808468
2441.406250	-51.927883
2442.382812	-52.293339
2443.359375	-52.024975
2444.335938	-50.895866
2445.312500	-52.895687
2446.289062	-54.825203
2447.265625	-51.843937
2448.242188	-51.776001
2449.218750	-51.866051
2450.195312	-50.061493
2451.171875	-51.872475
2452.148438	-52.547588
2453.125000	-53.394928
2454.101562	-53.945316
2455.078125	-52.423740
2456.054688	-52.742680
2457.031250	-53.471012
2458.007812	-51.968674
2458.984375	-53.298527
2459.960938	-52.114048
2460.937500	-51.595509
2461.914062	-51.333393
2462.890625	-51.171078
2463.867188	-50.477833
2464.843750	-49.231487
2465.820312	-48.829899
2466.796875	-52.077061
2467.773438	-51.336693
2468.750000	-51.172947
2469.726562	-50.054794
2470.703125	-50.140881
2471.679688	-51.250610
2472.656250	-51.884846
2473.632812	-51.067570
2474.609375	-50.308289
2475.585938	-50.820499
2476.562500	-49.111969
2477.539062	-50.774902
2478.515625	-50.692318
2479.492188	-49.036270
2480.468750	-48.343987
2481.445312	-49.210163
2482.421875	-50.040562
2483.398438	-48.909870
2484.375000	-50.550297
2485.351562	-49.369530
2486.328125	-49.504589
2487.304688	-49.631111
2488.281250	-49.735352
2489.257812	-48.884663
2490.234375	-47.624283
2491.210938	-50.921299
2492.187500	-49.448776
2493.164062	-49.700352
2494.140625	-48.247543
2495.117188	-48.287552
2496.093750	-47.036232
2497.070312	-47.000244
2498.046875	-49.405235
2499.023438	-47.617661
2500.000000	-46.698105
2500.976562	-47.285202
2501.953125	-48.049412
2502.929688	-47.498310
2503.906250	-47.163162
2504.882812	-47.251610
2505.859375	-46.889511
2506.835938	-47.705662
2507.812500	-45.685383
2508.789062	-47.712410
2509.765625	-48.579350
2510.742188	-45.834629
2511.718750	-47.806049
2512.695312	-47.171745
2513.671875	-47.391022
2514.648438	-47.142323
2515.625000	-45.015083
2516.601562	-46.767128
2517.578125	-46.276772
2518.554688	-45.548500
2519.531250	-46.757175
2520.507812	-46.413651
2521.484375	-44.172607
2522.460938	-45.542080
2523.437500	-46.876579
2524.414062	-46.346115
2525.390625	-45.020935
2526.367188	-43.706467
2527.343750	-42.992619
2528.320312	-43.412884
2529.296875	-45.717159
2530.273438	-45.106407
2531.250000	-44.778305
2532.226562	-43.375607
2533.203125	-43.828899
2534.179688	-44.916134
2535.156250	-43.646072
2536.132812	-44.754341
2537.109375	-45.736984
2538.085938	-44.272194
2539.062500	-43.907383
2540.039062	-45.153587
2541.015625	-43.318470
2541.992188	-43.759129
2542.968750	-42.692654
2543.945312	-42.237568
2544.921875	-42.862560
2545.898438	-41.795223
2546.875000	-42.100098
2547.851562	-41.446922
2548.828125	-42.924339
2549.804688	-42.718243
2550.781250	-42.313007
2551.757812	-42.504139
2552.734375	-43.154587
2553.710938	-43.542103
2554.687500	-43.094135
2555.664062	-43.441784
2556.640625	-42.483021
2557.617188	-41.823853
2558.593750	-41.926620
2559.570312	-42.345299
2560.546875	-43.516071
2561.523438	-43.392990
2562.500000	-42.711914
2563.476562	-42.114395
2564.453125	-42.230274
2565.429688	-41.386860
2566.406250	-41.645294
2567.382812	-42.846687
2568.359375	-42.040207
2569.335938	-41.995724
2570.312500	-41.337234
2571.289062	-41.367134
2572.265625	-40.766125
2573.242188	-41.298130
2574.218750	-42.203785
2575.195312	-42.949036
2576.171875	-42.317524
2577.148438	-41.051510
2578.125000	-40.822933
2579.101562	-40.888672
2580.078125	-41.773510
2581.054688	-42.953938
2582.031250	-41.806713
2583.007812	-41.266376
2583.984375	-42.169720
2584.960938	-41.899757
2585.937500	-40.601357
2586.914062	-41.894276
2587.890625	-42.643726
2588.867188	-43.356125
2589.843750	-42.356377
2590.820312	-42.161415
2591.796875	-42.010376
2592.773438	-42.396343
2593.750000	-42.516491
2594.726562	-42.198395
2595.703125	-43.489746
2596.679688	-43.421017
2597.656250	-44.003437
2598.632812	-42.519619
2599.609375	-43.515892
2600.585938	-41.989864
2601.562500	-43.167973
2602.539062	-42.690632
2603.515625	-43.830334
2604.492188	-43.870567
2605.468750	-43.047016
2606.445312	-42.757782
2607.421875	-42.870651
2608.398438	-42.380756
2609.375000	-44.497192
2610.351562	-44.822964
2611.328125	-44.964123
2612.304688	-46.613312
2613.281250	-43.262432
2614.257812	-45.884235
2615.234375	-45.685093
2616.210938	-44.613235
2617.187500	-46.842781
2618.164062	-45.437469
2619.140625	-46.739491
2620.117188	-44.183304
2621.093750	-44.847961
2622.070312	-44.356823
2623.046875	-45.175827
2624.023438	-45.158604
2625.000000	-45.273075
2625.976562	-44.054520
2626.953125	-45.449848
2627.929688	-44.421688
2628.906250	-46.170223
2629.882812	-44.906689
2630.859375	-45.120461
2631.835938	-45.010754
2632.812500	-44.924557
2633.789062	-46.911167
2634.765625	-46.108467
2635.742188	-45.684917
2636.718750	-47.130360
2637.695312	-46.949474
2638.671875	-45.116501
2639.648438	-44.481403
2640.625000	-46.696602
2641.601562	-48.139076
2642.578125	-47.995586
2643.554688	-46.108418
2644.531250	-47.963100
2645.507812	-46.386272
2646.484375	-46.166637
2647.460938	-46.459915
2648.437500	-48.655231
2649.414062	-47.173046
2650.390625	-46.833504
2651.367188	-47.285919
2652.343750	-46.211510
2653.320312	-46.509899
2654.296875	-47.565731
2655.273438	-47.998161
2656.250000	-47.253853
2657.226562	-49.573818
2658.203125	-49.214870
2659.179688	-48.533360
2660.156250	-47.678246
2661.132812	-48.649990
2662.109375	-50.192337
2663.085938	-49.101582
2664.062500	-48.418015
2665.039062	-49.198448
2666.015625	-48.684681
2666.992188	-49.589684
2667.968750	-48.589272
2668.945312	-49.552967
2669.921875	-51.445618
2670.898438	-50.832539
2671.875000	-48.817162
2672.851562	-48.797066
2673.828125	-48.440929
2674.804688	-49.535000
2675.781250	-49.919357
2676.757812	-47.929569
2677.734375	-49.890011
2678.710938	-48.656071
2679.687500	-48.044468
2680.664062	-48.737267
2681.640625	-48.312653
2682.617188	-50.474716
2683.593750	-49.621326
2684.570312	-49.876968
2685.546875	-50.615776
2686.523438	-48.379253
2687.500000	-50.896999
2688.476562	-49.838024
2689.453125	-52.073845
2690.429688	-49.476181
2691.406250	-48.012897
2692.382812	-48.597275
2693.359375	-49.819035
2694.335938	-49.361633
2695.312500	-50.992092
2696.289062	-52.180481
2697.265625	-50.132656
2698.242188	-48.722137
2699.218750	-49.288059
2700.195312	-49.406033
2701.171875	-50.792057
2702.148438	-49.020306
2703.125000	-49.933704
2704.101562	-49.645725
2705.078125	-49.125069
2706.054688	-49.689346
2707.031250	-50.376781
2708.007812	-50.322540
2708.984375	-51.521221
2709.960938	-52.487034
2710.937500	-49.294113
2711.914062	-48.879314
2712.890625	-48.629440
2713.867188	-47.951859
2714.843750	-50.254932
2715.820312	-50.741631
2716.796875	-51.829945
2717.773438	-50.098549
2718.750000	-48.191296
2719.726562	-49.148697
2720.703125	-48.527946
2721.679688	-49.663517
2722.656250	-50.345619
2723.632812	-51.550339
2724.609375	-51.198345
2725.585938	-49.121044
2726.562500	-49.413975
2727.539062	-48.794949
2728.515625	-49.691303
2729.492188	-50.781979
2730.468750	-51.523914
2731.445312	-52.332386
2732.421875	-50.788235
2733.398438	-49.852993
2734.375000	-49.527298
2735.351562	-48.983379
2736.328125	-49.622837
2737.304688	-51.443150
2738.281250	-50.602577
2739.257812	-50.485462
2740.234375	-50.011627
2741.210938	-50.859547
2742.187500	-49.431400
2743.164062	-48.760773
2744.140625	-50.422863
2745.117188	-50.718975
2746.093750	-50.285572
2747.070312	-49.791924
2748.046875	-49.663486
2749.023438	-48.795296
2750.000000	-49.401718
2750.976562	-50.831398
2751.953125	-51.537586
2752.929688	-52.131504
2753.906250	-52.436741
2754.882812	-51.665596
2755.859375	-51.502827
2756.835938	-49.481995
2757.812500	-51.177151
2758.789062	-52.037994
2759.765625	-52.946362
2760.742188	-52.596287
2761.718750	-52.216644
2762.695312	-52.612057
2763.671875	-51.181545
2764.648438	-49.834267
2765.625000	-51.766453
2766.601562	-52.785957
2767.578125	-52.889854
2768.554688	-50.182167
2769.531250	-50.421505
2770.507812	-51.171085
2771.484375	-51.551613
2772.460938	-51.664001
2773.437500	-52.714382
2774.414062	-51.759907
2775.390625	-51.640209
2776.367188	-50.606663
2777.343750	-50.422424
2778.320312	-51.626480
2779.296875	-54.096508
2780.273438	-52.787239
2781.250000	-51.026928
2782.226562	-51.390156
2783.203125	-50.958836
2784.179688	-51.399025
2785.156250	-51.416496
2786.132812	-50.519653
2787.109375	-50.998371
2788.085938	-50.797699
2789.062500	-51.652592
2790.039062	-51.725483
2791.015625	-52.227993
2791.992188	-52.070271
2792.968750	-51.858788
2793.945312	-52.300938
2794.921875	-50.094490
2795.898438	-49.161087
2796.875000	-49.169571
2797.851562	-49.527607
2798.828125	-50.096226
2799.804688	-48.829700
2800.781250	-49.256886
2801.757812	-49.441360
2802.734375	-51.132130
2803.710938	-51.218513
2804.687500	-52.119385
2805.664062	-50.484196
2806.640625	-50.573463
2807.617188	-51.550762
2808.593750	-52.196121
2809.570312	-51.422066
2810.546875	-52.287380
2811.523438	-52.136761
2812.500000	-50.844696
2813.476562	-50.487534
2814.453125	-50.797478
2815.429688	-50.051102
2816.406250	-48.721863
2817.382812	-48.210491
2818.359375	-46.519852
2819.335938	-46.600296
2820.312500	-46.834114
2821.289062	-48.268745
2822.265625	-48.534679
2823.242188	-48.778889
2824.218750	-48.500618
2825.195312	-49.216843
2826.171875	-49.817299
2827.148438	-49.091301
2828.125000	-47.920021
2829.101562	-48.945583
2830.078125	-49.215897
2831.054688	-49.330772
2832.031250	-47.746098
2833.007812	-47.502991
2833.984375	-48.001896
2834.960938	-47.521622
2835.937500	-47.457634
2836.914062	-48.570919
2837.890625	-49.358166
2838.867188	-46.662334
2839.843750	-45.414036
2840.820312	-44.435673
2841.796875	-45.318684
2842.773438	-46.963310
2843.750000	-46.910416
2844.726562	-45.605629
2845.703125	-46.233448
2846.679688	-46.122318
2847.656250	-46.131191
2848.632812	-45.188293
2849.609375	-45.437214
2850.585938	-45.287811
2851.562500	-45.016903
2852.539062	-44.030807
2853.515625	-44.706661
2854.492188	-45.144218
2855.468750	-45.295380
2856.445312	-45.336430
2857.421875	-45.817299
2858.398438	-46.409405
2859.375000	-44.630527
2860.351562	-43.994701
2861.328125	-42.942154
2862.304688	-42.475159
2863.281250	-43.490742
2864.257812	-44.106327
2865.234375	-44.107895
2866.210938	-42.652241
2867.187500	-42.343975
2868.164062	-42.820084
2869.140625	-43.319698
2870.117188	-41.760010
2871.093750	-41.668423
2872.070312	-42.921143
2873.046875	-43.760967
2874.023438	-43.924381
2875.000000	-44.421757
2875.976562	-43.701164
2876.953125	-42.021938
2877.929688	-42.385414
2878.906250	-42.149376
2879.882812	-42.005322
2880.859375	-41.722393
2881.835938	-42.207363
2882.812500	-40.405079
2883.789062	-38.792618
2884.765625	-38.412369
2885.742188	-39.119251
2886.718750	-39.723347
2887.695312	-39.778111
2888.671875	-39.417801
2889.648438	-41.772511
2890.625000	-43.238716
2891.601562	-43.879295
2892.578125	-44.470070
2893.554688	-42.707630
2894.531250	-40.307114
2895.507812	-38.590931
2896.484375	-38.634190
2897.460938	-39.114548
2898.437500	-40.339550
2899.414062	-40.954048
2900.390625	-41.573475
2901.367188	-39.494915
2902.343750	-38.864403
2903.320312	-38.613613
2904.296875	-37.930454
2905.273438	-37.213787
2906.250000	-37.838280
2907.226562	-38.086411
2908.203125	-37.470654
2909.179688	-38.181602
2910.156250	-39.316669
2911.132812	-39.346542
2912.109375	-40.482342
2913.085938	-40.754650
2914.062500	-40.025040
2915.039062	-40.941540
2916.015625	-40.653160
2916.992188	-41.062752
2917.968750	-41.947834
2918.945312	-39.557133
2919.921875	-38.367752
2920.898438	-37.423637
2921.875000	-35.849056
2922.851562	-35.054855
2923.828125	-34.864594
2924.804688	-35.816216
2925.781250	-38.104515
2926.757812	-39.315742
2927.734375	-40.272232
2928.710938	-40.969730
2929.687500	-40.415577
2930.664062	-38.631428
2931.640625	-38.681793
2932.617188	-40.169605
2933.593750	-41.270767
2934.570312	-40.399155
2935.546875	-38.355228
2936.523438	-36.235134
2937.500000	-35.573872
2938.476562	-35.442612
2939.453125	-36.835964
2940.429688	-36.574337
2941.406250	-36.377857
2942.382812	-38.038990
2943.359375	-37.764599
2944.335938	-37.217136
2945.312500	-39.294598
2946.289062	-40.046890
2947.265625	-38.861603
2948.242188	-39.042953
2949.218750	-37.355610
2950.195312	-36.628342
2951.171875	-35.829361
2952.148438	-37.735889
2953.125000	-37.299118
2954.101562	-38.318417
2955.078125	-37.565742
2956.054688	-35.811619
2957.031250	-36.319359
2958.007812	-36.263554
2958.984375	-36.142975
2959.960938	-37.344765
2960.937500	-36.428776
2961.914062	-37.056934
2962.890625	-38.118584
2963.867188	-37.076900
2964.843750	-36.040043
2965.820312	-36.848721
2966.796875	-36.119259
2967.773438	-35.767315
2968.750000	-37.663483
2969.726562	-36.720055
2970.703125	-36.441368
2971.679688	-36.310081
2972.656250	-36.749512
2973.632812	-34.762886
2974.609375	-33.918591
2975.585938	-34.184067
2976.562500	-35.053440
2977.539062	-35.854557
2978.515625	-35.542114
2979.492188	-36.136650
2980.468750	-35.137066
2981.445312	-36.727318
2982.421875	-35.273781
2983.398438	-37.290707
2984.375000	-35.965725
2985.351562	-36.639847
2986.328125	-39.773041
2987.304688	-34.666248
2988.281250	-34.560890
2989.257812	-36.011200
2990.234375	-34.509426
2991.210938	-32.943436
2992.187500	-33.002472
2993.164062	-33.096165
2994.140625	-32.991478
2995.117188	-33.466030
2996.093750	-34.070175
2997.070312	-34.060638
2998.046875	-34.528778
2999.023438	-34.869640
3000.000000	-34.392868
3000.976562	-34.049519
3001.953125	-33.272701
3002.929688	-32.643028
3003.906250	-34.094284
3004.882812	-34.631592
3005.859375	-34.361996
3006.835938	-32.320595
3007.812500	-32.227699
3008.789062	-32.126831
3009.765625	-30.783609
3010.742188	-29.636101
3011.718750	-30.232822
3012.695312	-31.192577
3013.671875	-30.001135
3014.648438	-32.376396
3015.625000	-33.519459
3016.601562	-30.976463
3017.578125	-31.451542
3018.554688	-32.522171
3019.531250	-31.156603
3020.507812	-31.198217
3021.484375	-31.250326
3022.460938	-31.088215
3023.437500	-30.125391
3024.414062	-30.099146
3025.390625	-29.629675
3026.367188	-30.556097
3027.343750	-31.635263
3028.320312	-30.688398
3029.296875	-29.111874
3030.273438	-31.617350
3031.250000	-29.807701
3032.226562	-28.302507
3033.203125	-29.899261
3034.179688	-32.495125
3035.156250	-29.611874
3036.132812	-27.646786
3037.109375	-27.586182
3038.085938	-27.250441
3039.062500	-25.919226
3040.039062	-26.673134
3041.015625	-28.251526
3041.992188	-27.871389
3042.968750	-28.447084
3043.945312	-28.554924
3044.921875	-28.518858
3045.898438	-29.220688
3046.875000	-27.797939
3047.851562	-28.549538
3048.828125	-28.547548
3049.804688	-27.203371
3050.781250	-25.697714
3051.757812	-23.998964
3052.734375	-24.130077
3053.710938	-25.980488
3054.687500	-24.315922
3055.664062	-25.476828
3056.640625	-23.372217
3057.617188	-24.555254
3058.593750	-24.454479
3059.570312	-22.879406
3060.546875	-24.056227
3061.523438	-23.907513
3062.500000	-24.779268
3063.476562	-24.835505
3064.453125	-25.921648
3065.429688	-26.913143
3066.406250	-26.660887
3067.382812	-26.493523
3068.359375	-26.974459
3069.335938	-26.587831
3070.312500	-26.368372
3071.289062	-25.027332
3072.265625	-25.609274
3073.242188	-25.141470
3074.218750	-24.763781
3075.195312	-25.103626
3076.171875	-25.169504
3077.148438	-25.299271
3078.125000	-24.546785
3079.101562	-24.677053
3080.078125	-23.761353
3081.054688	-24.221514
3082.031250	-23.518423
3083.007812	-25.084669
3083.984375	-22.923960
3084.960938	-22.428095
3085.937500	-25.099781
3086.914062	-26.156479
3087.890625	-26.035604
3088.867188	-24.921301
3089.843750	-25.946312
3090.820312	-25.597431
3091.796875	-25.930902
3092.773438	-25.968922
3093.750000	-25.954128
3094.726562	-25.121271
3095.703125	-25.780115
3096.679688	-25.413347
3097.656250	-24.692963
3098.632812	-25.320095
3099.609375	-25.054884
3100.585938	-25.366993
3101.562500	-25.095058
3102.539062	-24.345497
3103.515625	-25.766001
3104.492188	-25.881012
3105.468750	-24.247091
3106.445312	-25.469206
3107.421875	-24.861851
3108.398438	-25.664839
3109.375000	-25.727892
3110.351562	-25.230165
3111.328125	-26.742456
3112.304688	-26.124289
3113.281250	-25.154205
3114.257812	-26.844788
3115.234375	-27.220947
3116.210938	-26.289295
3117.187500	-25.399073
3118.164062	-26.367529
3119.140625	-26.517307
3120.117188	-26.431103
3121.093750	-26.675970
3122.070312	-27.810320
3123.046875	-26.295238
3124.023438	-24.841063
3125.000000	-26.896002
3125.976562	-27.518229
3126.953125	-27.832674
3127.929688	-26.338634
3128.906250	-28.342398
3129.882812	-26.735584
3130.859375	-27.801968
3131.835938	-27.891102
3132.812500	-27.559130
3133.789062	-27.842905
3134.765625	-28.213848
3135.742188	-27.569695
3136.718750	-28.746065
3137.695312	-27.259186
3138.671875	-28.558273
3139.648438	-28.697346
3140.625000	-30.598665
3141.601562	-28.936483
3142.578125	-27.980640
3143.554688	-28.299358
3144.531250	-29.522030
3145.507812	-27.270859
3146.484375	-28.128107
3147.460938	-28.900393
3148.437500	-29.451412
3149.414062	-28.918592
3150.390625	-29.609938
3151.367188	-29.118233
3152.343750	-30.021788
3153.320312	-30.450226
3154.296875	-30.298439
3155.273438	-32.053181
3156.250000	-31.796682
3157.226562	-30.572571
3158.203125	-30.526627
3159.179688	-30.539778
3160.156250	-30.522125
3161.132812	-31.478312
3162.109375	-31.321735
3163.085938	-31.650087
3164.062500	-32.574036
3165.039062	-33.918900
3166.015625	-32.280231
3166.992188	-33.077061
3167.968750	-32.015678
3168.945312	-30.614552
3169.921875	-32.266399
3170.898438	-32.478054
3171.875000	-33.218849
3172.851562	-33.983242
3173.828125	-33.209980
3174.804688	-33.514637
3175.781250	-34.091259
3176.757812	-32.688053
3177.734375	-32.629845
3178.710938	-33.548401
3179.687500	-33.602272
3180.664062	-34.260994
3181.640625	-33.697060
3182.617188	-34.843472
3183.593750	-34.684479
3184.570312	-33.604420
3185.546875	-34.375183
3186.523438	-34.664509
3187.500000	-35.199791
3188.476562	-35.331600
3189.453125	-36.196171
3190.429688	-36.637066
3191.406250	-37.326057
3192.382812	-35.815407
3193.359375	-34.991924
3194.335938	-35.041618
3195.312500	-35.820839
3196.289062	-36.391857
3197.265625	-37.605267
3198.242188	-38.783272
3199.218750	-39.410488
3200.195312	-38.819683
3201.171875	-37.492123
3202.148438	-37.082279
3203.125000	-36.981083
3204.101562	-37.406063
3205.078125	-37.836185
3206.054688	-38.929123
3207.031250	-39.445499
3208.007812	-41.094845
3208.984375	-39.134338
3209.960938	-38.150612
3210.937500	-38.515800
3211.914062	-38.497082
3212.890625	-39.732922
3213.867188	-40.034512
3214.843750	-40.530540
3215.820312	-40.088642
3216.796875	-40.798004
3217.773438	-40.257179
3218.750000	-40.155796
3219.726562	-39.911343
3220.703125	-40.303890
3221.679688	-40.856533
3222.656250	-42.110191
3223.632812	-42.581604
3224.609375	-43.422970
3225.585938	-42.604027
3226.562500	-43.078430
3227.539062	-41.795570
3228.515625	-41.839104
3229.492188	-43.000549
3230.468750	-43.342178
3231.445312	-43.907597
3232.421875	-44.564865
3233.398438	-44.483295
3234.375000	-45.595814
3235.351562	-43.974277
3236.328125	-43.504635
3237.304688	-43.551445
3238.281250	-43.984711
3239.257812	-44.520763
3240.234375	-45.407616
3241.210938	-47.349506
3242.187500	-46.119602
3243.164062	-45.234261
3244.140625	-44.525921
3245.117188	-43.630756
3246.093750	-45.831993
3247.070312	-46.202587
3248.046875	-47.242374
3249.023438	-47.375374
3250.000000	-48.330112
3250.976562	-47.484505
3251.953125	-46.745220
3252.929688	-46.191399
3253.906250	-45.835968
3254.882812	-47.023228
3255.859375	-46.931034
3256.835938	-46.735672
3257.812500	-47.877785
3258.789062	-47.662716
3259.765625	-46.852657
3260.742188	-46.997280
3261.718750	-46.188004
3262.695312	-46.191395
3263.671875	-47.955486
3264.648438	-47.437073
3265.625000	-47.491920
3266.601562	-46.729389
3267.578125	-46.608055
3268.554688	-46.384232
3269.531250	-45.463711
3270.507812	-45.543758
3271.484375	-46.255436
3272.460938	-48.204704
3273.437500	-47.826809
3274.414062	-47.590282
3275.390625	-47.215103
3276.367188	-45.623924
3277.343750	-45.790306
3278.320312	-45.106400
3279.296875	-46.263420
3280.273438	-47.811157
3281.250000	-48.663517
3282.226562	-47.680267
3283.203125	-48.581112
3284.179688	-47.743019
3285.156250	-47.301144
3286.132812	-46.066029
3287.109375	-46.737606
3288.085938	-46.645084
3289.062500	-47.086033
3290.039062	-48.606018
3291.015625	-48.008224
3291.992188	-47.711136
3292.968750	-47.858894
3293.945312	-47.582775
3294.921875	-48.172054
3295.898438	-48.158993
3296.875000	-47.735249
3297.851562	-48.637478
3298.828125	-49.854885
3299.804688	-50.498764
3300.781250	-49.322685
3301.757812	-48.787563
3302.734375	-47.495117
3303.710938	-48.182514
3304.687500	-50.057598
3305.664062	-48.210411
3306.640625	-48.329933
3307.617188	-50.893646
3308.593750	-50.214333
3309.570312	-48.715389
3310.546875	-49.269062
3311.523438	-49.339512
3312.500000	-50.037453
3313.476562	-49.517609
3314.453125	-50.568619
3315.429688	-49.720707
3316.406250	-50.789341
3317.382812	-49.825626
3318.359375	-50.379948
3319.335938	-49.643787
3320.312500	-50.564903
3321.289062	-51.339573
3322.265625	-51.231075
3323.242188	-50.379627
3324.218750	-49.748096
3325.195312	-49.450134
3326.171875	-50.117786
3327.148438	-49.653549
3328.125000	-52.105709
3329.101562	-51.421955
3330.078125	-51.236439
3331.054688	-51.043789
3332.031250	-49.990395
3333.007812	-49.689655
3333.984375	-49.748089
3334.960938	-48.849895
3335.937500	-49.899837
3336.914062	-50.320717
3337.890625	-50.890583
3338.867188	-50.101254
3339.843750	-50.407124
3340.820312	-52.188648
3341.796875	-50.682491
3342.773438	-50.404110
3343.750000	-50.798527
3344.726562	-51.363842
3345.703125	-51.448925
3346.679688	-52.056030
3347.656250	-50.931263
3348.632812	-49.425129
3349.609375	-51.265251
3350.585938	-50.337948
3351.562500	-49.049114
3352.539062	-50.531693
3353.515625	-50.881504
3354.492188	-51.381851
3355.468750	-52.582634
3356.445312	-51.922939
3357.421875	-50.947815
3358.398438	-51.761547
3359.375000	-52.628513
3360.351562	-51.455708
3361.328125	-50.738453
3362.304688	-50.794483
3363.281250	-51.736923
3364.257812	-51.225426
3365.234375	-52.942356
3366.210938	-52.517097
3367.187500	-53.008480
3368.164062	-51.359596
3369.140625	-50.163376
3370.117188	-53.006386
3371.093750	-52.328163
3372.070312	-51.378780
3373.046875	-49.667431
3374.023438	-48.923714
3375.000000	-50.038437
3375.976562	-50.325233
3376.953125	-49.089523
3377.929688	-50.425804
3378.906250	-51.468506
3379.882812	-51.502457
3380.859375	-50.755108
3381.835938	-52.389820
3382.812500	-51.874466
3383.789062	-53.130367
3384.765625	-51.766750
3385.742188	-51.000652
3386.718750	-51.680008
3387.695312	-52.145134
3388.671875	-52.733063
3389.648438	-54.126945
3390.625000	-52.842743
3391.601562	-52.551311
3392.578125	-52.460789
3393.554688	-51.520206
3394.531250	-50.413124
3395.507812	-47.527348
3396.484375	-48.980320
3397.460938	-48.881344
3398.437500	-48.588547
3399.414062	-48.607449
3400.390625	-50.504604
3401.367188	-49.910763
3402.343750	-50.303696
3403.320312	-51.188560
3404.296875	-51.727577
3405.273438	-51.877312
3406.250000	-50.353394
3407.226562	-49.694347
3408.203125	-49.217720
3409.179688	-49.892799
3410.156250	-50.327400
3411.132812	-52.027966
3412.109375	-49.908417
3413.085938	-49.604786
3414.062500	-49.786407
3415.039062	-48.271378
3416.015625	-47.717171
3416.992188	-47.576782
3417.968750	-45.788906
3418.945312	-48.930687
3419.921875	-48.763172
3420.898438	-47.719875
3421.875000	-50.084515
3422.851562	-49.959076
3423.828125	-47.347416
3424.804688	-48.547192
3425.781250	-50.987846
3426.757812	-50.181126
3427.734375	-49.392628
3428.710938	-49.248055
3429.687500	-48.503342
3430.664062	-47.655178
3431.640625	-49.071072
3432.617188	-47.195057
3433.593750	-47.700886
3434.570312	-46.392483
3435.546875	-46.126961
3436.523438	-46.233875
3437.500000	-45.376568
3438.476562	-47.514450
3439.453125	-44.128288
3440.429688	-44.114532
3441.406250	-49.483833
3442.382812	-45.181797
3443.359375	-48.212650
3444.335938	-48.190559
3445.312500	-45.934792
3446.289062	-45.868549
3447.265625	-49.686810
3448.242188	-45.220135
3449.218750	-45.287880
3450.195312	-45.648243
3451.171875	-46.321201
3452.148438	-47.137486
3453.125000	-46.992477
3454.101562	-46.642635
3455.078125	-44.409241
3456.054688	-45.332066
3457.031250	-46.269997
3458.007812	-45.566654
3458.984375	-45.524670
3459.960938	-43.563763
3460.937500	-44.755470
3461.914062	-42.629665
3462.890625	-46.327618
3463.867188	-42.638264
3464.843750	-43.958431
3465.820312	-46.806358
3466.796875	-43.004913
3467.773438	-44.351994
3468.750000	-46.110031
3469.726562	-44.024509
3470.703125	-42.944576
3471.679688	-43.852066
3472.656250	-45.853462
3473.632812	-43.634266
3474.609375	-44.037102
3475.585938	-44.230621
3476.562500	-42.943672
3477.539062	-43.612831
3478.515625	-45.272110
3479.492188	-43.055569
3480.468750	-41.731194
3481.445312	-41.381332
3482.421875	-44.349533
3483.398438	-42.038445
3484.375000	-42.818237
3485.351562	-41.675358
3486.328125	-41.643551
3487.304688	-43.812431
3488.281250	-40.210541
3489.257812	-43.235706
3490.234375	-44.213188
3491.210938	-40.912388
3492.187500	-41.323570
3493.164062	-40.887653
3494.140625	-43.439537
3495.117188	-41.403061
3496.093750	-42.649498
3497.070312	-41.691620
3498.046875	-41.275455
3499.023438	-40.096710
3500.000000	-40.898960
3500.976562	-40.255085
3501.953125	-38.899769
3502.929688	-37.981037
3503.906250	-41.931236
3504.882812	-40.266525
3505.859375	-41.690712
3506.835938	-39.804615
3507.812500	-39.859730
3508.789062	-41.285797
3509.765625	-40.206085
3510.742188	-39.981148
3511.718750	-38.392231
3512.695312	-37.503208
3513.671875	-38.500759
3514.648438	-38.554729
3515.625000	-37.988354
3516.601562	-36.608059
3517.578125	-35.952679
3518.554688	-37.872723
3519.531250	-39.438522
3520.507812	-37.830166
3521.484375	-39.172180
3522.460938	-36.783684
3523.437500	-35.963551
3524.414062	-36.311317
3525.390625	-38.172741
3526.367188	-39.343575
3527.343750	-37.029644
3528.320312	-37.885910
3529.296875	-38.188198
3530.273438	-38.022572
3531.250000	-38.068604
3532.226562	-37.057865
3533.203125	-38.094879
3534.179688	-36.842449
3535.156250	-34.417931
3536.132812	-35.723530
3537.109375	-33.322659
3538.085938	-32.081673
3539.062500	-33.096859
3540.039062	-36.990055
3541.015625	-34.083775
3541.992188	-35.408581
3542.968750	-34.617046
3543.945312	-34.779953
3544.921875	-34.354721
3545.898438	-34.410149
3546.875000	-36.682468
3547.851562	-35.522102
3548.828125	-34.693291
3549.804688	-35.431435
3550.781250	-35.645397
3551.757812	-36.713448
3552.734375	-35.600445
3553.710938	-36.092167
3554.687500	-37.034039
3555.664062	-35.229069
3556.640625	-35.238869
3557.617188	-34.549309
3558.593750	-34.571980
3559.570312	-34.284527
3560.546875	-35.412102
3561.523438	-37.509304
3562.500000	-35.628311
3563.476562	-35.301842
3564.453125	-36.211636
3565.429688	-36.310829
3566.406250	-37.577652
3567.382812	-35.284439
3568.359375	-35.676575
3569.335938	-36.293449
3570.312500	-37.204315
3571.289062	-36.784672
3572.265625	-36.000881
3573.242188	-36.490604
3574.218750	-36.427944
3575.195312	-35.453201
3576.171875	-36.780487
3577.148438	-36.359756
3578.125000	-36.958881
3579.101562	-36.081539
3580.078125	-36.499809
3581.054688	-36.258469
3582.031250	-36.135418
3583.007812	-35.790348
3583.984375	-36.572823
3584.960938	-37.087482
3585.937500	-38.163795
3586.914062	-36.652996
3587.890625	-36.387455
3588.867188	-38.010670
3589.843750	-37.784130
3590.820312	-35.657425
3591.796875	-35.714924
3592.773438	-37.840656
3593.750000	-37.127827
3594.726562	-37.717304
3595.703125	-37.590897
3596.679688	-37.086979
3597.656250	-35.734276
3598.632812	-38.430653
3599.609375	-39.543842
3600.585938	-38.971287
3601.562500	-38.088127
3602.539062	-37.629856
3603.515625	-37.692406
3604.492188	-38.727333
3605.468750	-37.278542
3606.445312	-37.625027
3607.421875	-40.459095
3608.398438	-39.873653
3609.375000	-39.409767
3610.351562	-38.830910
3611.328125	-38.483650
3612.304688	-38.111862
3613.281250	-39.918953
3614.257812	-40.492279
3615.234375	-40.077587
3616.210938	-40.820232
3617.187500	-41.400280
3618.164062	-40.638172
3619.140625	-40.167618
3620.117188	-39.169182
3621.093750	-39.801640
3622.070312	-41.166920
3623.046875	-43.707165
3624.023438	-42.208221
3625.000000	-41.510509
3625.976562	-42.302586
3626.953125	-41.645916
3627.929688	-39.652718
3628.906250	-40.108994
3629.882812	-42.760731
3630.859375	-43.677673
3631.835938	-43.081718
3632.812500	-42.962929
3633.789062	-43.722271
3634.765625	-44.106625
3635.742188	-42.079178
3636.718750	-42.158234
3637.695312	-42.178947
3638.671875	-44.197365
3639.648438	-45.193123
3640.625000	-45.776611
3641.601562	-44.141415
3642.578125	-44.607117
3643.554688	-44.812717
3644.531250	-44.985291
3645.507812	-44.934822
3646.484375	-43.363930
3647.460938	-43.817478
3648.437500	-43.911850
3649.414062	-45.990639
3650.390625	-44.885498
3651.367188	-44.559822
3652.343750	-46.420761
3653.320312	-45.054676
3654.296875	-45.118103
3655.273438	-46.066448
3656.250000	-45.774887
3657.226562	-46.857155
3658.203125	-46.914703
3659.179688	-47.178101
3660.156250	-46.747368
3661.132812	-47.623413
3662.109375	-46.110748
3663.085938	-46.541214
3664.062500	-46.908291
3665.039062	-47.265472
3666.015625	-46.771992
3666.992188	-45.710476
3667.968750	-47.791653
3668.945312	-49.271645
3669.921875	-47.070953
3670.898438	-48.065414
3671.875000	-47.655979
3672.851562	-47.761642
3673.828125	-48.488827
3674.804688	-47.201626
3675.781250	-46.693497
3676.757812	-47.790924
3677.734375	-49.023937
3678.710938	-49.101475
3679.687500	-48.483063
3680.664062	-47.432938
3681.640625	-49.239647
3682.617188	-49.713844
3683.593750	-48.105164
3684.570312	-49.086372
3685.546875	-48.946396
3686.523438	-49.479511
3687.500000	-50.018517
3688.476562	-50.321693
3689.453125	-48.228844
3690.429688	-49.181015
3691.406250	-49.975029
3692.382812	-51.498272
3693.359375	-48.856949
3694.335938	-48.628948
3695.312500	-48.034649
3696.289062	-49.624096
3697.265625	-49.817829
3698.242188	-50.363544
3699.218750	-49.566990
3700.195312	-50.473850
3701.171875	-49.369488
3702.148438	-50.928020
3703.125000	-50.241787
3704.101562	-49.466621
3705.078125	-50.332176
3706.054688	-50.865021
3707.031250	-50.176819
3708.007812	-50.879997
3708.984375	-52.507687
3709.960938	-51.531391
3710.937500	-50.940571
3711.914062	-49.110966
3712.890625	-50.736595
3713.867188	-50.321583
3714.843750	-50.496105
3715.820312	-50.887783
3716.796875	-51.459999
3717.773438	-51.589901
3718.750000	-50.794682
3719.726562	-52.421959
3720.703125	-50.827454
3721.679688	-50.796944
3722.656250	-51.477516
3723.632812	-52.034210
3724.609375	-51.796364
3725.585938	-52.144379
3726.562500	-52.038136
3727.539062	-51.310883
3728.515625	-51.709675
3729.492188	-52.958298
3730.468750	-52.695618
3731.445312	-52.727821
3732.421875	-52.953510
3733.398438	-51.015942
3734.375000	-52.088108
3735.351562	-51.771271
3736.328125	-51.879593
3737.304688	-51.538986
3738.281250	-52.919048
3739.257812	-52.600746
3740.234375	-51.247993
3741.210938	-53.093674
3742.187500	-53.270058
3743.164062	-53.077785
3744.140625	-53.512871
3745.117188	-52.707256
3746.093750	-52.460056
3747.070312	-52.430164
3748.046875	-52.600117
3749.023438	-53.925953
3750.000000	-52.664436
3750.976562	-53.045345
3751.953125	-53.160740
3752.929688	-52.857143
3753.906250	-54.000568
3754.882812	-54.050259
3755.859375	-53.791191
3756.835938	-55.369534
3757.812500	-54.877827
3758.789062	-53.906414
3759.765625	-52.726746
3760.742188	-52.146915
3761.718750	-52.265835
3762.695312	-53.375683
3763.671875	-54.047279
3764.648438	-53.027390
3765.625000	-53.340202
3766.601562	-52.649124
3767.578125	-52.226757
3768.554688	-52.814186
3769.531250	-52.466061
3770.507812	-50.671524
3771.484375	-51.327091
3772.460938	-50.818810
3773.437500	-54.857708
3774.414062	-53.825241
3775.390625	-53.720715
3776.367188	-52.301476
3777.343750	-52.301849
3778.320312	-52.924309
3779.296875	-54.256142
3780.273438	-53.725304
3781.250000	-51.416168
3782.226562	-52.649944
3783.203125	-53.102722
3784.179688	-53.754093
3785.156250	-54.250019
3786.132812	-54.588520
3787.109375	-54.799595
3788.085938	-52.790340
3789.062500	-54.189777
3790.039062	-54.846142
3791.015625	-54.639290
3791.992188	-53.497543
3792.968750	-51.634754
3793.945312	-51.690567
3794.921875	-50.527679
3795.898438	-51.748943
3796.875000	-51.957127
3797.851562	-53.948505
3798.828125	-51.947983
3799.804688	-53.967068
3800.781250	-53.877407
3801.757812	-52.869823
3802.734375	-52.944595
3803.710938	-53.731956
3804.687500	-53.535622
3805.664062	-54.423401
3806.640625	-52.856689
3807.617188	-52.959629
3808.593750	-52.745056
3809.570312	-51.121422
3810.546875	-53.761505
3811.523438	-52.864777
3812.500000	-53.681679
3813.476562	-52.676224
3814.453125	-54.023575
3815.429688	-55.117699
3816.406250	-52.343937
3817.382812	-51.787884
3818.359375	-50.621979
3819.335938	-51.136826
3820.312500	-53.022476
3821.289062	-51.566017
3822.265625	-52.764774
3823.242188	-53.002502
3824.218750	-52.964489
3825.195312	-54.077339
3826.171875	-53.569901
3827.148438	-53.309853
3828.125000	-53.684990
3829.101562	-53.210758
3830.078125	-53.160847
3831.054688	-53.075562
3832.031250	-52.466091
3833.007812	-53.852299
3833.984375	-53.902531
3834.960938	-51.353233
3835.937500	-53.770733
3836.914062	-55.148159
3837.890625	-52.743553
3838.867188	-51.400658
3839.843750	-52.215927
3840.820312	-50.112095
3841.796875	-50.941940
3842.773438	-50.841908
3843.750000	-50.967461
3844.726562	-51.510311
3845.703125	-51.290958
3846.679688	-51.481586
3847.656250	-55.427505
3848.632812	-53.989365
3849.609375	-51.933178
3850.585938	-52.393856
3851.562500	-52.463963
3852.539062	-53.028824
3853.515625	-53.333786
3854.492188	-51.973633
3855.468750	-52.576458
3856.445312	-52.138470
3857.421875	-52.813965
3858.398438	-49.985928
3859.375000	-50.545525
3860.351562	-52.582478
3861.328125	-52.781914
3862.304688	-51.033043
3863.281250	-50.291836
3864.257812	-50.415775
3865.234375	-49.574799
3866.210938	-51.267586
3867.187500	-49.503639
3868.164062	-50.295982
3869.140625	-52.480862
3870.117188	-50.970295
3871.093750	-51.229244
3872.070312	-52.394016
3873.046875	-53.442822
3874.023438	-52.099548
3875.000000	-49.546329
3875.976562	-49.969944
3876.953125	-50.646351
3877.929688	-49.765411
3878.906250	-50.537483
3879.882812	-49.122097
3880.859375	-49.198696
3881.835938	-51.486534
3882.812500	-49.858318
3883.789062	-47.810120
3884.765625	-47.906822
3885.742188	-48.725315
3886.718750	-48.696316
3887.695312	-46.793140
3888.671875	-46.348068
3889.648438	-48.087448
3890.625000	-50.503716
3891.601562	-48.182430
3892.578125	-49.975994
3893.554688	-50.740776
3894.531250	-50.992970
3895.507812	-48.398045
3896.484375	-51.087429
3897.460938	-50.862331
3898.437500	-48.660778
3899.414062	-48.333950
3900.390625	-47.840862
3901.367188	-50.125092
3902.343750	-45.701366
3903.320312	-45.044220
3904.296875	-46.863049
3905.273438	-47.978558
3906.250000	-48.531292
3907.226562	-46.150265
3908.203125	-47.571564
3909.179688	-43.939564
3910.156250	-44.130802
3911.132812	-45.004436
3912.109375	-44.184551
3913.085938	-47.777740
3914.062500	-44.578873
3915.039062	-47.480267
3916.015625	-45.985828
3916.992188	-46.026958
3917.968750	-50.902683
3918.945312	-46.809616
3919.921875	-45.753201
3920.898438	-47.897854
3921.875000	-47.695690
3922.851562	-45.720100
3923.828125	-45.408173
3924.804688	-46.375717
3925.781250	-43.765636
3926.757812	-44.334431
3927.734375	-45.902752
3928.710938	-43.717094
3929.687500	-43.910904
3930.664062	-45.005455
3931.640625	-43.234718
3932.617188	-40.911213
3933.593750	-41.442543
3934.570312	-47.364643
3935.546875	-45.464611
3936.523438	-44.274239
3937.500000	-45.582615
3938.476562	-43.575500
3939.453125	-44.116978
3940.429688	-44.768822
3941.406250	-43.462101
3942.382812	-44.896530
3943.359375	-44.367577
3944.335938	-40.397015
3945.312500	-43.682220
3946.289062	-40.271107
3947.265625	-40.656849
3948.242188	-41.238781
3949.218750	-42.377449
3950.195312	-42.396729
3951.171875	-41.708717
3952.148438	-39.016937
3953.125000	-35.869862
3954.101562	-37.966965
3955.078125	-40.863277
3956.054688	-40.097595
3957.031250	-40.150352
3958.007812	-40.313408
3958.984375	-40.182671
3959.960938	-38.374214
3960.937500	-38.754093
3961.914062	-39.887882
3962.890625	-39.690567
3963.867188	-39.451710
3964.843750	-39.184883
3965.820312	-37.215267
3966.796875	-37.101662
3967.773438	-36.877995
3968.750000	-38.051373
3969.726562	-38.162270
3970.703125	-38.510555
3971.679688	-36.942955
3972.656250	-38.603569
3973.632812	-37.277035
3974.609375	-32.724243
3975.585938	-33.826862
3976.562500	-40.546219
3977.539062	-38.224350
3978.515625	-35.273273
3979.492188	-37.577034
3980.468750	-39.778397
3981.445312	-36.926056
3982.421875	-37.216988
3983.398438	-38.899338
3984.375000	-37.772263
3985.351562	-37.073498
3986.328125	-36.963173
3987.304688	-34.594910
3988.281250	-35.140533
3989.257812	-36.349926
3990.234375	-36.663914
3991.210938	-35.425846
3992.187500	-36.902138
3993.164062	-35.746330
3994.140625	-34.787663
3995.117188	-34.466709
3996.093750	-33.866890
3997.070312	-33.642532
3998.046875	-36.533817
3999.023438	-36.469177
4000.000000	-33.730774
4000.976562	-34.876324
4001.953125	-35.109505
4002.929688	-35.540092
4003.906250	-35.700207
4004.882812	-35.143631
4005.859375	-34.309631
4006.835938	-34.598892
4007.812500	-35.474236
4008.789062	-35.087849
4009.765625	-36.166733
4010.742188	-34.541565
4011.718750	-33.897064
4012.695312	-33.627007
4013.671875	-34.206650
4014.648438	-34.397655
4015.625000	-34.317875
4016.601562	-33.928810
4017.578125	-33.286690
4018.554688	-33.080894
4019.531250	-34.737053
4020.507812	-33.769173
4021.484375	-32.719193
4022.460938	-34.200047
4023.437500	-32.692768
4024.414062	-32.917671
4025.390625	-33.173203
4026.367188	-32.042767
4027.343750	-33.786121
4028.320312	-32.197815
4029.296875	-32.984631
4030.273438	-33.826782
4031.250000	-32.479977
4032.226562	-31.257446
4033.203125	-31.148596
4034.179688	-32.679852
4035.156250	-32.074409
4036.132812	-33.091347
4037.109375	-31.165192
4038.085938	-31.312946
4039.062500	-30.389891
4040.039062	-30.840515
4041.015625	-30.792847
4041.992188	-31.734291
4042.968750	-30.970026
4043.945312	-28.445002
4044.921875	-29.138510
4045.898438	-32.075573
4046.875000	-31.415384
4047.851562	-31.401070
4048.828125	-29.737520
4049.804688	-30.820225
4050.781250	-32.632149
4051.757812	-33.387386
4052.734375	-32.466480
4053.710938	-30.856178
4054.687500	-31.777378
4055.664062	-31.447525
4056.640625	-30.611574
4057.617188	-31.949816
4058.593750	-31.351648
4059.570312	-31.462112
4060.546875	-32.415833
4061.523438	-32.861115
4062.500000	-32.330421
4063.476562	-32.120907
4064.453125	-30.587769
4065.429688	-29.822290
4066.406250	-32.844296
4067.382812	-31.377310
4068.359375	-34.369152
4069.335938	-33.471966
4070.312500	-35.092216
4071.289062	-34.183640
4072.265625	-35.158524
4073.242188	-32.566639
4074.218750	-32.023438
4075.195312	-33.010559
4076.171875	-34.086479
4077.148438	-35.456703
4078.125000	-34.580822
4079.101562	-36.072601
4080.078125	-34.796528
4081.054688	-33.534801
4082.031250	-35.082268
4083.007812	-34.016945
4083.984375	-34.393463
4084.960938	-32.578922
4085.937500	-33.052944
4086.914062	-33.331039
4087.890625	-34.272205
4088.867188	-35.743820
4089.843750	-35.180244
4090.820312	-36.017113
4091.796875	-36.297462
4092.773438	-35.158638
4093.750000	-34.374027
4094.726562	-34.535854
4095.703125	-32.995972
4096.679688	-36.718006
4097.656250	-36.590324
4098.632812	-36.435268
4099.609375	-36.552696
4100.585938	-35.675323
4101.562500	-35.159584
4102.539062	-35.576653
4103.515625	-35.272678
4104.492188	-37.029434
4105.468750	-35.753777
4106.445312	-35.979397
4107.421875	-36.068180
4108.398438	-35.547928
4109.375000	-36.136494
4110.351562	-36.221462
4111.328125	-36.623981
4112.304688	-35.772011
4113.281250	-36.062065
4114.257812	-36.497498
4115.234375	-35.110596
4116.210938	-36.577694
4117.187500	-37.071865
4118.164062	-36.543964
4119.140625	-38.064529
4120.117188	-38.894192
4121.093750	-37.795700
4122.070312	-39.711826
4123.046875	-36.018181
4124.023438	-37.636135
4125.000000	-37.300339
4125.976562	-37.134609
4126.953125	-37.363132
4127.929688	-35.998672
4128.906250	-38.872955
4129.882812	-37.815041
4130.859375	-38.970833
4131.835938	-38.659851
4132.812500	-41.004494
4133.789062	-40.105141
4134.765625	-37.942146
4135.742188	-39.533630
4136.718750	-37.925388
4137.695312	-35.585533
4138.671875	-39.023582
4139.648438	-37.987537
4140.625000	-38.908947
4141.601562	-40.197678
4142.578125	-39.919605
4143.554688	-41.781212
4144.531250	-42.499577
4145.507812	-41.512619
4146.484375	-39.741535
4147.460938	-38.395615
4148.437500	-36.498695
4149.414062	-37.712326
4150.390625	-39.298355
4151.367188	-41.235714
4152.343750	-39.398750
4153.320312	-40.020294
4154.296875	-41.597267
4155.273438	-44.328129
4156.250000	-45.181496
4157.226562	-42.412090
4158.203125	-40.237679
4159.179688	-37.642166
4160.156250	-38.386517
4161.132812	-41.105103
4162.109375	-40.654209
4163.085938	-40.991703
4164.062500	-41.523838
4165.039062	-42.196739
4166.015625	-44.708809
4166.992188	-47.024761
4167.968750	-44.471504
4168.945312	-40.806660
4169.921875	-40.368237
4170.898438	-39.296047
4171.875000	-39.916969
4172.851562	-41.840065
4173.828125	-41.134769
4174.804688	-42.771824
4175.781250	-42.897472
4176.757812	-42.864372
4177.734375	-43.871189
4178.710938	-42.967670
4179.687500	-42.319118
4180.664062	-41.120537
4181.640625	-40.304184
4182.617188	-41.970310
4183.593750	-43.684246
4184.570312	-43.334179
4185.546875	-43.031597
4186.523438	-42.846748
4187.500000	-44.372822
4188.476562	-45.362629
4189.453125	-43.903381
4190.429688	-42.525120
4191.406250	-43.352024
4192.382812	-42.637493
4193.359375	-42.327099
4194.335938	-44.197548
4195.312500	-46.673389
4196.289062	-44.995850
4197.265625	-42.942104
4198.242188	-44.078651
4199.218750	-45.045662
4200.195312	-44.207829
4201.171875	-43.790916
4202.148438	-43.593727
4203.125000	-43.960716
4204.101562	-43.731174
4205.078125	-45.404350
4206.054688	-46.708469
4207.031250	-45.119961
4208.007812	-44.698582
4208.984375	-44.235809
4209.960938	-44.969326
4210.937500	-44.677620
4211.914062	-46.371658
4212.890625	-47.288280
4213.867188	-46.126087
4214.843750	-46.550854
4215.820312	-46.405350
4216.796875	-45.001980
4217.773438	-47.332756
4218.750000	-48.690395
4219.726562	-46.337223
4220.703125	-46.282116
4221.679688	-45.533012
4222.656250	-45.948322
4223.632812	-47.321857
4224.609375	-45.855076
4225.585938	-45.849739
4226.562500	-45.206135
4227.539062	-45.977573
4228.515625	-46.197346
4229.492188	-45.598324
4230.468750	-46.813316
4231.445312	-44.238152
4232.421875	-45.064434
4233.398438	-47.192123
4234.375000	-49.483120
4235.351562	-47.184303
4236.328125	-48.461300
4237.304688	-46.425175
4238.281250	-46.440430
4239.257812	-46.245071
4240.234375	-45.577927
4241.210938	-48.279720
4242.187500	-48.663414
4243.164062	-49.275864
4244.140625	-48.159435
4245.117188	-47.618980
4246.093750	-48.974369
4247.070312	-47.715763
4248.046875	-47.809200
4249.023438	-49.461227
4250.000000	-46.531647
4250.976562	-45.980450
4251.953125	-44.375645
4252.929688	-45.312984
4253.906250	-46.774635
4254.882812	-46.133144
4255.859375	-46.329712
4256.835938	-44.729137
4257.812500	-46.261620
4258.789062	-48.170197
4259.765625	-47.902016
4260.742188	-47.763821
4261.718750	-47.745560
4262.695312	-48.352062
4263.671875	-48.647121
4264.648438	-49.125210
4265.625000	-48.281727
4266.601562	-46.046211
4267.578125	-47.802277
4268.554688	-47.606560
4269.531250	-46.782860
4270.507812	-45.965023
4271.484375	-45.409924
4272.460938	-44.997894
4273.437500	-45.688198
4274.414062	-47.847652
4275.390625	-49.371498
4276.367188	-50.555481
4277.343750	-48.274124
4278.320312	-45.335464
4279.296875	-45.007603
4280.273438	-45.659286
4281.250000	-46.157719
4282.226562	-48.707058
4283.203125	-45.801704
4284.179688	-45.181358
4285.156250	-44.835442
4286.132812	-47.189430
4287.109375	-47.749588
4288.085938	-48.495525
4289.062500	-49.115887
4290.039062	-46.454300
4291.015625	-46.119820
4291.992188	-43.561729
4292.968750	-42.759346
4293.945312	-44.673290
4294.921875	-45.158539
4295.898438	-44.839767
4296.875000	-44.966866
4297.851562	-44.695282
4298.828125	-47.080818
4299.804688	-46.803413
4300.781250	-45.429676
4301.757812	-47.626755
4302.734375	-47.292156
4303.710938	-47.182777
4304.687500	-44.149483
4305.664062	-46.516399
4306.640625	-44.806957
4307.617188	-43.542366
4308.593750	-42.178253
4309.570312	-42.272377
4310.546875	-41.806858
4311.523438	-44.507221
4312.500000	-43.296314
4313.476562	-40.993446
4314.453125	-41.982849
4315.429688	-44.714886
4316.406250	-42.351143
4317.382812	-42.167892
4318.359375	-45.789417
4319.335938	-47.187611
4320.312500	-42.707523
4321.289062	-44.147690
4322.265625	-43.830650
4323.242188	-41.556282
4324.218750	-41.002777
4325.195312	-44.467728
4326.171875	-45.833290
4327.148438	-47.026478
4328.125000	-43.128139
4329.101562	-43.269836
4330.078125	-44.191849
4331.054688	-45.112240
4332.031250	-44.874035
4333.007812	-43.008526
4333.984375	-41.073025
4334.960938	-38.982941
4335.937500	-37.787334
4336.914062	-40.986256
4337.890625	-39.798080
4338.867188	-39.897045
4339.843750	-42.062740
4340.820312	-42.139870
4341.796875	-42.760632
4342.773438	-43.669735
4343.750000	-43.038139
4344.726562	-45.079914
4345.703125	-46.661194
4346.679688	-44.706867
4347.656250	-41.974937
4348.632812	-38.443760
4349.609375	-37.998692
4350.585938	-41.488113
4351.562500	-47.032772
4352.539062	-42.506649
4353.515625	-40.404938
4354.492188	-42.318867
4355.468750	-42.702461
4356.445312	-39.539669
4357.421875	-38.888481
4358.398438	-43.491051
4359.375000	-40.847206
4360.351562	-39.336517
4361.328125	-37.837128
4362.304688	-38.246216
4363.281250	-39.924137
4364.257812	-42.660080
4365.234375	-45.484947
4366.210938	-40.593609
4367.187500	-41.347862
4368.164062	-43.677341
4369.140625	-38.340034
4370.117188	-40.793446
4371.093750	-44.307247
4372.070312	-42.412590
4373.046875	-41.505196
4374.023438	-42.221226
4375.000000	-39.299831
4375.976562	-38.901100
4376.953125	-37.912399
4377.929688	-40.786217
4378.906250	-39.167587
4379.882812	-40.979984
4380.859375	-45.322239
4381.835938	-40.771694
4382.812500	-39.105904
4383.789062	-39.671127
4384.765625	-39.442688
4385.742188	-40.195629
4386.718750	-40.212315
4387.695312	-40.764629
4388.671875	-37.877342
4389.648438	-37.710167
4390.625000	-41.897793
4391.601562	-43.346550
4392.578125	-41.082314
4393.554688	-43.159672
4394.531250	-44.120422
4395.507812	-43.487663
4396.484375	-42.325531
4397.460938	-41.621006
4398.437500	-40.261745
4399.414062	-41.321323
4400.390625	-40.133873
4401.367188	-39.619942
4402.343750	-40.462154
4403.320312	-41.442955
4404.296875	-40.491291
4405.273438	-39.527229
4406.250000	-42.205746
4407.226562	-41.066616
4408.203125	-40.081654
4409.179688	-40.614769
4410.156250	-42.067501
4411.132812	-42.049404
4412.109375	-42.339279
4413.085938	-39.858234
4414.062500	-42.582726
4415.039062	-38.451603
4416.015625	-36.637306
4416.992188	-39.944275
4417.968750	-40.821209
4418.945312	-40.144501
4419.921875	-39.934448
4420.898438	-39.095222
4421.875000	-38.742107
4422.851562	-42.032803
4423.828125	-40.547234
4424.804688	-42.192326
4425.781250	-44.371670
4426.757812	-43.995071
4427.734375	-39.746479
4428.710938	-41.452572
4429.687500	-40.093864
4430.664062	-42.452175
4431.640625	-42.085209
4432.617188	-39.626663
4433.593750	-40.098614
4434.570312	-42.062355
4435.546875	-42.294155
4436.523438	-41.585468
4437.500000	-41.225861
4438.476562	-44.321594
4439.453125	-41.119366
4440.429688	-42.114166
4441.406250	-42.046413
4442.382812	-41.460312
4443.359375	-41.075264
4444.335938	-42.048050
4445.312500	-40.798927
4446.289062	-40.118641
4447.265625	-39.054287
4448.242188	-40.569424
4449.218750	-42.832577
4450.195312	-42.498150
4451.171875	-45.039486
4452.148438	-41.610367
4453.125000	-43.258507
4454.101562	-41.643669
4455.078125	-42.030296
4456.054688	-40.670784
4457.031250	-40.989410
4458.007812	-42.981365
4458.984375	-44.411484
4459.960938	-41.935032
4460.937500	-41.496563
4461.914062	-44.323952
4462.890625	-44.489841
4463.867188	-43.729015
4464.843750	-44.284866
4465.820312	-43.754707
4466.796875	-43.149792
4467.773438	-42.221069
4468.750000	-42.073780
4469.726562	-40.853989
4470.703125	-41.661755
4471.679688	-46.321556
4472.656250	-43.197392
4473.632812	-43.410583
4474.609375	-44.768097
4475.585938	-43.834335
4476.562500	-42.961029
4477.539062	-42.325855
4478.515625	-43.198040
4479.492188	-43.419018
4480.468750	-41.608688
4481.445312	-44.151024
4482.421875	-41.442001
4483.398438	-41.643486
4484.375000	-40.801369
4485.351562	-40.993664
4486.328125	-42.193287
4487.304688	-43.030903
4488.281250	-42.260979
4489.257812	-43.724693
4490.234375	-42.712627
4491.210938	-44.826248
4492.187500	-40.902214
4493.164062	-41.875927
4494.140625	-42.853367
4495.117188	-42.488022
4496.093750	-43.442680
4497.070312	-42.494461
4498.046875	-43.119884
4499.023438	-45.290539
4500.000000	-44.091801
4500.976562	-42.485138
4501.953125	-42.099491
4502.929688	-42.357563
4503.906250	-43.041187
4504.882812	-43.593060
4505.859375	-42.459362
4506.835938	-42.572456
4507.812500	-43.134121
4508.789062	-43.273205
4509.765625	-44.553921
4510.742188	-44.100468
4511.718750	-44.248211
4512.695312	-45.140404
4513.671875	-42.557884
4514.648438	-41.019718
4515.625000	-40.709694
4516.601562	-41.341106
4517.578125	-40.498817
4518.554688	-40.911034
4519.531250	-40.832314
4520.507812	-42.208557
4521.484375	-39.019554
4522.460938	-41.215752
4523.437500	-43.674931
4524.414062	-42.416988
4525.390625	-41.505054
4526.367188	-41.986061
4527.343750	-41.883625
4528.320312	-43.451080
4529.296875	-43.341419
4530.273438	-43.420570
4531.250000	-42.882835
4532.226562	-43.067947
4533.203125	-44.521729
4534.179688	-44.867207
4535.156250	-44.766869
4536.132812	-42.591663
4537.109375	-44.255142
4538.085938	-40.125111
4539.062500	-43.928108
4540.039062	-42.180260
4541.015625	-41.727505
4541.992188	-43.086433
4542.968750	-42.355999
4543.945312	-43.993793
4544.921875	-43.073143
4545.898438	-44.460304
4546.875000	-44.604881
4547.851562	-43.327450
4548.828125	-44.114517
4549.804688	-43.617527
4550.781250	-42.661049
4551.757812	-42.280312
4552.734375	-43.532978
4553.710938	-44.454910
4554.687500	-43.915745
4555.664062	-45.868008
4556.640625	-46.148212
4557.617188	-44.751961
4558.593750	-43.848583
4559.570312	-43.765892
4560.546875	-43.082813
4561.523438	-41.353954
4562.500000	-44.330242
4563.476562	-41.014538
4564.453125	-41.483070
4565.429688	-41.679230
4566.406250	-41.856792
4567.382812	-43.363392
4568.359375	-43.913765
4569.335938	-44.521473
4570.312500	-44.548622
4571.289062	-42.561073
4572.265625	-42.782303
4573.242188	-43.454842
4574.218750	-42.904297
4575.195312	-42.507275
4576.171875	-43.046757
4577.148438	-43.415745
4578.125000	-44.523293
4579.101562	-42.641151
4580.078125	-44.950180
4581.054688	-43.404556
4582.031250	-42.463066
4583.007812	-39.953156
4583.984375	-42.580257
4584.960938	-39.575989
4585.937500	-42.276352
4586.914062	-39.854641
4587.890625	-42.136303
4588.867188	-42.011795
4589.843750	-43.096554
4590.820312	-42.361454
4591.796875	-43.940388
4592.773438	-41.873810
4593.750000	-43.971672
4594.726562	-43.965622
4595.703125	-42.801285
4596.679688	-43.357628
4597.656250	-43.103752
4598.632812	-42.758392
4599.609375	-42.252804
4600.585938	-41.859818
4601.562500	-42.116470
4602.539062	-43.339554
4603.515625	-42.200974
4604.492188	-42.260525
4605.468750	-41.088776
4606.445312	-40.627754
4607.421875	-40.623695
4608.398438	-41.108315
4609.375000	-41.348694
4610.351562	-40.637383
4611.328125	-41.458698
4612.304688	-42.853233
4613.281250	-41.855534
4614.257812	-41.749115
4615.234375	-42.294003
4616.210938	-42.717983
4617.187500	-42.169033
4618.164062	-42.798691
4619.140625	-42.328121
4620.117188	-41.296246
4621.093750	-41.566795
4622.070312	-40.232574
4623.046875	-41.560032
4624.023438	-41.741608
4625.000000	-41.497768
4625.976562	-40.840473
4626.953125	-42.255177
4627.929688	-42.284908
4628.906250	-39.511047
4629.882812	-40.097595
4630.859375	-41.271793
4631.835938	-39.665390
4632.812500	-41.375271
4633.789062	-43.242390
4634.765625	-42.073292
4635.742188	-41.614754
4636.718750	-41.611988
4637.695312	-43.253025
4638.671875	-40.044258
4639.648438	-40.440563
4640.625000	-41.562759
4641.601562	-43.890160
4642.578125	-42.618103
4643.554688	-42.722332
4644.531250	-41.620651
4645.507812	-41.142700
4646.484375	-39.384331
4647.460938	-39.750038
4648.437500	-40.298374
4649.414062	-40.664127
4650.390625	-40.135941
4651.367188	-40.128387
4652.343750	-38.706753
4653.320312	-38.580353
4654.296875	-39.699184
4655.273438	-40.886185
4656.250000	-41.903290
4657.226562	-41.546444
4658.203125	-40.404411
4659.179688	-39.611408
4660.156250	-41.009045
4661.132812	-40.523224
4662.109375	-40.520294
4663.085938	-39.949383
4664.062500	-41.021042
4665.039062	-41.435066
4666.015625	-39.458405
4666.992188	-40.649368
4667.968750	-42.958344
4668.945312	-41.706787
4669.921875	-39.797745
4670.898438	-40.408829
4671.875000	-39.726048
4672.851562	-38.652332
4673.828125	-38.059189
4674.804688	-37.822853
4675.781250	-39.740341
4676.757812	-39.069923
4677.734375	-40.403034
4678.710938	-39.623650
4679.687500	-38.692863
4680.664062	-40.658623
4681.640625	-38.920429
4682.617188	-38.527245
4683.593750	-40.025055
4684.570312	-38.811554
4685.546875	-41.192368
4686.523438	-40.212074
4687.500000	-39.897263
4688.476562	-39.019451
4689.453125	-40.116844
4690.429688	-41.210171
4691.406250	-38.381058
4692.382812	-40.146294
4693.359375	-39.679859
4694.335938	-38.660324
4695.312500	-38.732273
4696.289062	-37.313717
4697.265625	-40.725986
4698.242188	-41.421509
4699.218750	-39.108997
4700.195312	-39.763329
4701.171875	-39.150185
4702.148438	-37.529995
4703.125000	-38.117176
4704.101562	-37.748043
4705.078125	-36.464760
4706.054688	-36.700153
4707.031250	-39.088966
4708.007812	-40.217167
4708.984375	-39.476631
4709.960938	-39.305916
4710.937500	-39.740662
4711.914062	-40.295353
4712.890625	-37.787987
4713.867188	-37.089878
4714.843750	-36.405586
4715.820312	-36.075298
4716.796875	-37.997097
4717.773438	-41.657772
4718.750000	-37.509251
4719.726562	-39.946293
4720.703125	-40.483932
4721.679688	-39.065666
4722.656250	-37.421337
4723.632812	-37.691734
4724.609375	-34.799416
4725.585938	-38.012203
4726.562500	-37.000389
4727.539062	-38.061138
4728.515625	-36.928619
4729.492188	-37.621441
4730.468750	-41.487679
4731.445312	-37.400845
4732.421875	-40.059811
4733.398438	-38.921967
4734.375000	-35.845581
4735.351562	-33.654682
4736.328125	-37.564640
4737.304688	-39.152435
4738.281250	-37.651047
4739.257812	-44.515491
4740.234375	-40.538761
4741.210938	-36.554466
4742.187500	-34.860928
4743.164062	-37.941643
4744.140625	-37.509693
4745.117188	-39.027424
4746.093750	-37.582661
4747.070312	-38.234173
4748.046875	-35.473118
4749.023438	-37.516850
4750.000000	-39.405502
4750.976562	-40.420013
4751.953125	-36.649376
4752.929688	-38.111713
4753.906250	-39.290539
4754.882812	-36.834198
4755.859375	-38.519291
4756.835938	-37.471806
4757.812500	-36.730595
4758.789062	-37.320683
4759.765625	-37.755436
4760.742188	-36.632198
4761.718750	-38.086258
4762.695312	-40.407661
4763.671875	-40.997524
4764.648438	-40.332672
4765.625000	-40.925682
4766.601562	-40.116051
4767.578125	-42.643723
4768.554688	-39.140888
4769.531250	-36.916050
4770.507812	-34.808048
4771.484375	-40.322628
4772.460938	-39.613510
4773.437500	-39.581444
4774.414062	-39.295818
4775.390625	-42.568062
4776.367188	-43.345978
4777.343750	-42.947906
4778.320312	-41.131741
4779.296875	-40.650063
4780.273438	-36.766464
4781.250000	-37.891228
4782.226562	-41.790688
4783.203125	-41.130249
4784.179688	-42.393944
4785.156250	-41.605621
4786.132812	-39.788025
4787.109375	-39.637115
4788.085938	-42.893970
4789.062500	-44.456966
4790.039062	-43.059311
4791.015625	-39.606781
4791.992188	-39.973095
4792.968750	-42.431416
4793.945312	-43.492901
4794.921875	-44.642494
4795.898438	-44.351112
4796.875000	-44.634712
4797.851562	-44.602043
4798.828125	-41.136818
4799.804688	-40.858051
4800.781250	-42.298470
4801.757812	-43.041904
4802.734375	-43.398876
4803.710938	-44.030624
4804.687500	-45.392223
4805.664062	-45.390800
4806.640625	-45.114773
4807.617188	-45.122868
4808.593750	-44.578125
4809.570312	-46.401806
4810.546875	-47.525101
4811.523438	-46.652836
4812.500000	-43.804699
4813.476562	-43.231651
4814.453125	-44.734299
4815.429688	-46.426338
4816.406250	-48.654194
4817.382812	-47.210281
4818.359375	-50.028446
4819.335938	-49.141491
4820.312500	-47.963100
4821.289062	-47.648300
4822.265625	-46.675434
4823.242188	-45.177742
4824.218750	-48.467102
4825.195312	-49.501064
4826.171875	-46.329205
4827.148438	-48.517307
4828.125000	-49.029541
4829.101562	-48.288734
4830.078125	-49.745777
4831.054688	-50.933987
4832.031250	-52.153927
4833.007812	-51.011635
4833.984375	-48.661591
4834.960938	-47.921326
4835.937500	-48.753540
4836.914062	-48.252499
4837.890625	-50.391403
4838.867188	-51.331123
4839.843750	-51.120892
4840.820312	-51.212841
4841.796875	-51.777767
4842.773438	-52.100655
4843.750000	-51.980698
4844.726562	-51.336071
4845.703125	-51.148563
4846.679688	-51.458096
4847.656250	-50.792652
4848.632812	-49.935123
4849.609375	-51.450043
4850.585938	-51.982403
4851.562500	-51.507240
4852.539062	-51.737297
4853.515625	-51.520702
4854.492188	-53.058372
4855.468750	-53.523216
4856.445312	-53.214165
4857.421875	-52.814388
4858.398438	-51.751987
4859.375000	-51.624737
4860.351562	-51.530128
4861.328125	-52.698574
4862.304688	-53.329685
4863.281250	-53.015533
4864.257812	-53.055996
4865.234375	-51.378551
4866.210938	-50.832420
4867.187500	-52.097084
4868.164062	-51.854889
4869.140625	-52.223209
4870.117188	-52.804916
4871.093750	-52.536575
4872.070312	-53.265648
4873.046875	-53.104195
4874.023438	-53.899841
4875.000000	-53.802311
4875.976562	-51.521290
4876.953125	-53.430676
4877.929688	-51.099823
4878.906250	-53.737877
4879.882812	-52.549324
4880.859375	-52.786400
4881.835938	-54.068699
4882.812500	-54.326477
4883.789062	-54.620312
4884.765625	-53.184776
4885.742188	-51.476078
4886.718750	-54.549793
4887.695312	-53.448742
4888.671875	-52.596138
4889.648438	-54.243698
4890.625000	-52.351418
4891.601562	-51.873749
4892.578125	-54.169655
4893.554688	-53.381107
4894.531250	-52.168182
4895.507812	-53.472286
4896.484375	-52.120300
4897.460938	-52.113262
4898.437500	-53.464855
4899.414062	-52.569466
4900.390625	-52.107342
4901.367188	-54.655670
4902.343750	-54.184418
4903.320312	-54.022522
4904.296875	-53.198284
4905.273438	-53.937637
4906.250000	-54.280724
4907.226562	-52.381195
4908.203125	-53.007389
4909.179688	-54.071156
4910.156250	-52.882774
4911.132812	-52.175457
4912.109375	-53.528820
4913.085938	-51.902966
4914.062500	-52.108185
4915.039062	-50.326996
4916.015625	-51.624233
4916.992188	-51.524788
4917.968750	-52.907238
4918.945312	-52.323074
4919.921875	-52.380390
4920.898438	-52.418690
4921.875000	-53.285027
4922.851562	-51.715370
4923.828125	-52.407101
4924.804688	-52.927933
4925.781250	-53.292736
4926.757812	-52.673649
4927.734375	-54.112564
4928.710938	-52.940483
4929.687500	-52.055061
4930.664062	-51.939640
4931.640625	-50.028549
4932.617188	-50.482372
4933.593750	-51.311855
4934.570312	-51.102753
4935.546875	-51.803207
4936.523438	-49.931847
4937.500000	-52.448769
4938.476562	-53.268749
4939.453125	-52.669395
4940.429688	-51.660473
4941.406250	-52.892189
4942.382812	-54.214867
4943.359375	-54.732265
4944.335938	-52.973557
4945.312500	-53.577103
4946.289062	-52.045830
4947.265625	-51.693428
4948.242188	-53.484665
4949.218750	-52.581898
4950.195312	-51.246029
4951.171875	-52.233196
4952.148438	-50.141537
4953.125000	-50.610851
4954.101562	-51.831963
4955.078125	-50.480206
4956.054688	-51.618217
4957.031250	-51.761856
4958.007812	-52.047321
4958.984375	-51.064697
4959.960938	-50.677780
4960.937500	-53.407436
4961.914062	-52.264793
4962.890625	-53.782978
4963.867188	-52.872120
4964.843750	-51.497860
4965.820312	-50.694336
4966.796875	-51.463776
4967.773438	-51.810051
4968.750000	-52.843845
4969.726562	-51.901943
4970.703125	-51.300659
4971.679688	-49.838844
4972.656250	-50.716816
4973.632812	-51.013073
4974.609375	-50.889416
4975.585938	-50.575249
4976.562500	-50.019344
4977.539062	-49.351227
4978.515625	-50.548706
4979.492188	-52.545086
4980.468750	-51.061924
4981.445312	-51.213497
4982.421875	-50.663513
4983.398438	-51.677307
4984.375000	-51.667931
4985.351562	-51.161232
4986.328125	-50.840939
4987.304688	-50.510979
4988.281250	-49.797840
4989.257812	-50.614143
4990.234375	-51.442863
4991.210938	-52.275421
4992.187500	-49.640762
4993.164062	-50.046532
4994.140625	-48.955280
4995.117188	-51.829617
4996.093750	-50.659019
4997.070312	-50.843357
4998.046875	-50.290165
4999.023438	-49.727085
5000.000000	-50.878113
5000.976562	-51.144520
5001.953125	-50.182949
5002.929688	-50.060169
5003.906250	-49.487003
5004.882812	-52.029057
5005.859375	-50.055389
5006.835938	-49.599163
5007.812500	-50.028549
5008.789062	-50.223202
5009.765625	-50.563713
5010.742188	-49.516140
5011.718750	-49.927135
5012.695312	-49.616631
5013.671875	-48.716080
5014.648438	-47.797306
5015.625000	-49.131878
5016.601562	-50.668449
5017.578125	-50.316162
5018.554688	-49.502880
5019.531250	-49.889786
5020.507812	-48.855167
5021.484375	-47.731701
5022.460938	-49.460735
5023.437500	-49.014572
5024.414062	-48.594242
5025.390625	-49.387604
5026.367188	-49.455650
5027.343750	-49.581539
5028.320312	-49.706184
5029.296875	-48.221771
5030.273438	-47.733849
5031.250000	-46.870716
5032.226562	-49.909874
5033.203125	-47.998280
5034.179688	-47.614620
5035.156250	-48.819508
5036.132812	-49.820786
5037.109375	-47.071819
5038.085938	-47.196339
5039.062500	-48.208565
5040.039062	-49.720978
5041.015625	-48.650517
5041.992188	-48.853477
5042.968750	-48.764137
5043.945312	-49.187756
5044.921875	-49.800415
5045.898438	-48.928776
5046.875000	-49.622154
5047.851562	-49.192253
5048.828125	-48.484688
5049.804688	-48.428322
5050.781250	-46.911369
5051.757812	-47.070087
5052.734375	-49.327671
5053.710938	-50.442871
5054.687500	-49.787861
5055.664062	-48.834518
5056.640625	-48.726627
5057.617188	-48.893555
5058.593750	-48.906536
5059.570312	-48.764767
5060.546875	-49.162502
5061.523438	-48.479004
5062.500000	-49.358688
5063.476562	-49.460476
5064.453125	-50.225033
5065.429688	-49.108677
5066.406250	-50.245148
5067.382812	-49.207592
5068.359375	-48.256947
5069.335938	-49.265312
5070.312500	-48.694324
5071.289062	-49.025303
5072.265625	-49.787167
5073.242188	-49.259964
5074.218750	-48.691650
5075.195312	-49.279163
5076.171875	-48.169922
5077.148438	-49.387917
5078.125000	-48.161980
5079.101562	-47.951359
5080.078125	-49.574924
5081.054688	-49.016315
5082.031250	-49.495636
5083.007812	-50.469688
5083.984375	-50.551723
5084.960938	-48.665237
5085.937500	-49.068600
5086.914062	-48.352261
5087.890625	-49.573868
5088.867188	-49.592884
5089.843750	-48.356495
5090.820312	-49.365051
5091.796875	-47.766140
5092.773438	-49.215401
5093.750000	-48.458397
5094.726562	-49.271736
5095.703125	-48.275894
5096.679688	-50.461151
5097.656250	-47.388260
5098.632812	-49.088211
5099.609375	-48.005764
5100.585938	-49.333847
5101.562500	-49.693359
5102.539062	-51.505863
5103.515625	-47.712776
5104.492188	-48.063641
5105.468750	-49.768475
5106.445312	-49.292576
5107.421875	-48.412178
5108.398438	-48.420795
5109.375000	-48.981308
5110.351562	-49.056812
5111.328125	-47.942047
5112.304688	-48.735699
5113.281250	-47.137238
5114.257812	-47.871117
5115.234375	-49.783978
5116.210938	-49.552048
5117.187500	-49.915489
5118.164062	-48.878620
5119.140625	-48.314308
5120.117188	-48.387882
5121.093750	-47.884525
5122.070312	-49.994953
5123.046875	-50.895081
5124.023438	-49.908493
5125.000000	-48.447460
5125.976562	-47.503204
5126.953125	-49.749470
5127.929688	-50.086582
5128.906250	-48.641907
5129.882812	-50.275219
5130.859375	-51.380753
5131.835938	-49.853924
5132.812500	-48.023994
5133.789062	-49.333500
5134.765625	-50.070557
5135.742188	-48.367100
5136.718750	-50.171276
5137.695312	-50.368999
5138.671875	-49.151249
5139.648438	-49.497795
5140.625000	-50.326591
5141.601562	-49.153473
5142.578125	-51.140205
5143.554688	-50.995583
5144.531250	-51.291164
5145.507812	-49.437206
5146.484375	-49.850464
5147.460938	-49.352825
5148.437500	-49.782600
5149.414062	-50.630234
5150.390625	-49.639156
5151.367188	-50.260445
5152.343750	-50.554790
5153.320312	-50.436081
5154.296875	-53.211830
5155.273438	-51.569653
5156.250000	-49.671093
5157.226562	-50.577133
5158.203125	-50.364830
5159.179688	-51.157879
5160.156250	-51.924648
5161.132812	-51.819538
5162.109375	-50.499855
5163.085938	-51.080437
5164.062500	-52.410839
5165.039062	-52.681778
5166.015625	-51.900837
5166.992188	-51.481403
5167.968750	-53.811646
5168.945312	-53.732533
5169.921875	-52.788914
5170.898438	-51.082867
5171.875000	-51.092342
5172.851562	-51.841843
5173.828125	-52.055187
5174.804688	-51.919140
5175.781250	-53.324245
5176.757812	-52.741100
5177.734375	-51.623947
5178.710938	-53.795898
5179.687500	-53.079205
5180.664062	-51.997440
5181.640625	-52.630283
5182.617188	-52.391708
5183.593750	-52.274410
5184.570312	-52.577587
5185.546875	-55.019810
5186.523438	-53.021896
5187.500000	-52.503849
5188.476562	-54.423027
5189.453125	-55.203999
5190.429688	-54.330666
5191.406250	-54.067795
5192.382812	-53.822506
5193.359375	-54.139565
5194.335938	-52.528801
5195.312500	-53.827831
5196.289062	-53.707821
5197.265625	-53.862350
5198.242188	-54.200203
5199.218750	-52.529343
5200.195312	-54.723526
5201.171875	-53.668022
5202.148438	-52.564133
5203.125000	-53.905914
5204.101562	-53.980930
5205.078125	-52.818596
5206.054688	-54.263641
5207.031250	-54.940845
5208.007812	-54.456371
5208.984375	-54.545715
5209.960938	-53.601070
5210.937500	-53.059437
5211.914062	-53.466473
5212.890625	-54.120815
5213.867188	-54.910645
5214.843750	-54.319542
5215.820312	-54.275372
5216.796875	-54.136608
5217.773438	-53.661045
5218.750000	-54.480686
5219.726562	-54.474548
5220.703125	-54.672989
5221.679688	-53.848885
5222.656250	-53.532463
5223.632812	-54.864910
5224.609375	-53.886223
5225.585938	-54.969189
5226.562500	-53.602207
5227.539062	-54.253784
5228.515625	-53.881695
5229.492188	-52.077309
5230.468750	-53.816177
5231.445312	-53.519226
5232.421875	-52.950577
5233.398438	-55.592945
5234.375000	-54.225845
5235.351562	-55.616447
5236.328125	-55.628189
5237.304688	-53.537212
5238.281250	-52.851269
5239.257812	-51.401638
5240.234375	-53.866325
5241.210938	-53.783947
5242.187500	-55.343193
5243.164062	-55.835880
5244.140625	-55.268284
5245.117188	-55.910973
5246.093750	-53.947922
5247.070312	-53.698082
5248.046875	-54.745537
5249.023438	-54.022915
5250.000000	-54.846367
5250.976562	-56.441093
5251.953125	-54.943596
5252.929688	-53.391621
5253.906250	-52.616150
5254.882812	-54.175385
5255.859375	-54.596241
5256.835938	-54.845585
5257.812500	-55.407551
5258.789062	-53.658581
5259.765625	-54.643856
5260.742188	-54.815289
5261.718750	-53.120403
5262.695312	-52.838161
5263.671875	-53.669464
5264.648438	-52.806927
5265.625000	-54.606781
5266.601562	-55.459942
5267.578125	-54.665588
5268.554688	-55.659069
5269.531250	-53.333553
5270.507812	-53.282825
5271.484375	-53.999718
5272.460938	-54.272778
5273.437500	-53.757191
5274.414062	-53.347923
5275.390625	-52.448978
5276.367188	-53.511593
5277.343750	-54.696419
5278.320312	-54.171669
5279.296875	-55.543919
5280.273438	-55.367374
5281.250000	-53.327320
5282.226562	-54.158955
5283.203125	-53.334782
5284.179688	-55.190456
5285.156250	-55.000172
5286.132812	-54.011631
5287.109375	-53.745167
5288.085938	-53.509663
5289.062500	-54.649376
5290.039062	-55.169842
5291.015625	-52.738678
5291.992188	-53.295341
5292.968750	-53.967175
5293.945312	-54.434299
5294.921875	-54.047184
5295.898438	-56.008904
5296.875000	-55.550217
5297.851562	-54.077850
5298.828125	-54.233852
5299.804688	-54.881409
5300.781250	-53.493149
5301.757812	-52.586620
5302.734375	-54.268932
5303.710938	-55.144146
5304.687500	-54.931625
5305.664062	-52.699417
5306.640625	-52.606533
5307.617188	-53.284531
5308.593750	-54.537109
5309.570312	-55.263897
5310.546875	-54.939251
5311.523438	-54.768951
5312.500000	-55.366764
5313.476562	-53.829594
5314.453125	-53.711750
5315.429688	-56.258907
5316.406250	-54.545670
5317.382812	-54.942295
5318.359375	-53.994480
5319.335938	-55.765259
5320.312500	-52.967438
5321.289062	-51.631878
5322.265625	-52.671326
5323.242188	-54.434479
5324.218750	-55.025349
5325.195312	-53.595123
5326.171875	-53.569004
5327.148438	-54.792381
5328.125000	-55.369610
5329.101562	-53.870712
5330.078125	-53.641323
5331.054688	-55.210121
5332.031250	-54.060162
5333.007812	-56.378479
5333.984375	-56.430542
5334.960938	-53.712627
5335.937500	-52.209576
5336.914062	-53.959843
5337.890625	-55.375546
5338.867188	-54.350658
5339.843750	-55.043510
5340.820312	-54.982121
5341.796875	-55.088436
5342.773438	-57.124100
5343.750000	-56.581535
5344.726562	-54.626133
5345.703125	-53.761425
5346.679688	-54.696835
5347.656250	-55.634098
5348.632812	-53.683144
5349.609375	-55.161560
5350.585938	-53.581154
5351.562500	-54.038292
5352.539062	-55.442383
5353.515625	-56.575043
5354.492188	-54.959034
5355.468750	-55.612640
5356.445312	-55.595081
5357.421875	-56.017059
5358.398438	-55.475456
5359.375000	-54.839123
5360.351562	-55.366642
5361.328125	-54.558071
5362.304688	-55.879707
5363.281250	-56.958378
5364.257812	-56.197426
5365.234375	-56.208576
5366.210938	-55.422756
5367.187500	-56.816273
5368.164062	-53.780392
5369.140625	-54.385387
5370.117188	-54.211731
5371.093750	-55.123543
5372.070312	-55.998898
5373.046875	-55.031937
5374.023438	-54.965130
5375.000000	-54.065266
5375.976562	-54.999928
5376.953125	-55.666992
5377.929688	-54.950245
5378.906250	-55.509518
5379.882812	-53.391937
5380.859375	-54.805378
5381.835938	-56.621544
5382.812500	-56.154102
5383.789062	-55.595547
5384.765625	-56.087952
5385.742188	-55.607590
5386.718750	-55.798141
5387.695312	-54.111221
5388.671875	-54.901512
5389.648438	-54.249683
5390.625000	-55.571918
5391.601562	-56.674946
5392.578125	-54.095303
5393.554688	-52.782436
5394.531250	-54.569096
5395.507812	-55.762970
5396.484375	-56.746380
5397.460938	-55.413696
5398.437500	-54.909328
5399.414062	-56.724560
5400.390625	-55.451313
5401.367188	-54.409496
5402.343750	-55.196575
5403.320312	-56.362137
5404.296875	-55.733440
5405.273438	-55.931934
5406.250000	-56.179852
5407.226562	-57.639683
5408.203125	-56.046734
5409.179688	-55.102692
5410.156250	-56.630478
5411.132812	-56.040363
5412.109375	-56.657494
5413.085938	-55.939621
5414.062500	-55.482079
5415.039062	-54.113579
5416.015625	-55.709003
5416.992188	-55.628014
5417.968750	-54.349884
5418.945312	-56.425270
5419.921875	-56.191479
5420.898438	-54.754070
5421.875000	-55.379284
5422.851562	-54.735893
5423.828125	-55.610123
5424.804688	-56.125473
5425.781250	-56.295982
5426.757812	-54.271275
5427.734375	-55.647469
5428.710938	-55.114056
5429.687500	-54.146980
5430.664062	-54.346401
5431.640625	-55.879536
5432.617188	-55.251385
5433.593750	-55.014946
5434.570312	-57.339043
5435.546875	-55.679161
5436.523438	-55.703358
5437.500000	-54.190704
5438.476562	-54.691601
5439.453125	-55.948727
5440.429688	-54.599262
5441.406250	-56.457275
5442.382812	-56.108143
5443.359375	-55.303257
5444.335938	-54.622009
5445.312500	-56.926239
5446.289062	-54.884930
5447.265625	-55.018269
5448.242188	-57.287464
5449.218750	-56.221630
5450.195312	-55.952591
5451.171875	-55.610195
5452.148438	-56.599407
5453.125000	-55.558922
5454.101562	-54.785381
5455.078125	-54.432697
5456.054688	-56.607819
5457.031250	-55.151623
5458.007812	-55.017845
5458.984375	-54.888397
5459.960938	-55.081043
5460.937500	-55.561657
5461.914062	-56.703518
5462.890625	-54.261776
5463.867188	-55.370792
5464.843750	-55.139072
5465.820312	-55.368443
5466.796875	-55.436356
5467.773438	-55.218201
5468.750000	-56.882862
5469.726562	-55.599884
5470.703125	-55.812378
5471.679688	-55.449219
5472.656250	-55.021175
5473.632812	-54.595070
5474.609375	-54.396057
5475.585938	-54.607494
5476.562500	-55.380760
5477.539062	-55.406200
5478.515625	-55.272484
5479.492188	-55.887001
5480.468750	-54.220417
5481.445312	-54.348442
5482.421875	-55.480179
5483.398438	-54.323799
5484.375000	-54.258053
5485.351562	-53.476982
5486.328125	-55.724754
5487.304688	-54.498371
5488.281250	-55.797390
5489.257812	-57.600430
5490.234375	-56.051769
5491.210938	-56.759769
5492.187500	-55.377533
5493.164062	-56.849148
5494.140625	-55.351086
5495.117188	-56.649601
5496.093750	-53.733047
5497.070312	-55.132771
5498.046875	-55.660267
5499.023438	-54.246250
5500.000000	-55.749611
5500.976562	-55.828339
5501.953125	-53.412804
5502.929688	-55.128044
5503.906250	-55.923977
5504.882812	-56.764286
5505.859375	-55.245216
5506.835938	-55.051292
5507.812500	-55.059830
5508.789062	-54.172413
5509.765625	-53.042675
5510.742188	-53.815182
5511.718750	-55.023518
5512.695312	-55.244881
5513.671875	-56.412594
5514.648438	-55.267254
5515.625000	-55.669891
5516.601562	-54.415230
5517.578125	-54.464294
5518.554688	-56.780327
5519.531250	-56.042660
5520.507812	-56.215908
5521.484375	-55.278843
5522.460938	-55.131580
5523.437500	-55.342533
5524.414062	-55.089695
5525.390625	-55.915127
5526.367188	-55.891273
5527.343750	-54.480221
5528.320312	-54.700085
5529.296875	-55.027020
5530.273438	-54.960499
5531.250000	-55.194542
5532.226562	-55.060200
5533.203125	-54.092876
5534.179688	-54.889198
5535.156250	-54.968597
5536.132812	-55.021637
5537.109375	-55.101406
5538.085938	-54.698006
5539.062500	-55.474403
5540.039062	-53.933151
5541.015625	-54.759148
5541.992188	-54.544106
5542.968750	-55.025070
5543.945312	-53.673222
5544.921875	-53.559196
5545.898438	-55.542217
5546.875000	-54.936279
5547.851562	-53.374977
5548.828125	-54.444462
5549.804688	-55.097168
5550.781250	-53.537014
5551.757812	-54.140030
5552.734375	-54.766071
5553.710938	-54.024258
5554.687500	-52.936626
5555.664062	-53.746376
5556.640625	-55.031094
5557.617188	-55.006992
5558.593750	-55.250031
5559.570312	-55.624981
5560.546875	-54.053959
5561.523438	-53.767490
5562.500000	-54.517349
5563.476562	-55.030304
5564.453125	-54.194893
5565.429688	-54.504795
5566.406250	-54.822300
5567.382812	-55.948635
5568.359375	-54.453800
5569.335938	-54.570553
5570.312500	-54.875511
5571.289062	-54.318562
5572.265625	-54.739445
5573.242188	-54.573315
5574.218750	-55.725487
5575.195312	-54.914028
5576.171875	-53.717354
5577.148438	-53.608307
5578.125000	-54.123444
5579.101562	-54.102371
5580.078125	-53.049511
5581.054688	-55.179794
5582.031250	-53.197750
5583.007812	-54.786507
5583.984375	-55.912319
5584.960938	-55.230415
5585.937500	-53.816490
5586.914062	-54.409847
5587.890625	-54.732204
5588.867188	-54.556805
5589.843750	-54.333698
5590.820312	-53.059128
5591.796875	-55.409027
5592.773438	-53.122551
5593.750000	-53.952446
5594.726562	-54.378658
5595.703125	-53.748837
5596.679688	-53.903992
5597.656250	-54.035225
5598.632812	-53.991123
5599.609375	-53.942841
5600.585938	-54.558918
5601.562500	-54.715847
5602.539062	-54.410446
5603.515625	-53.525295
5604.492188	-55.325787
5605.468750	-53.763412
5606.445312	-53.006477
5607.421875	-54.094887
5608.398438	-55.093037
5609.375000	-53.604492
5610.351562	-53.649670
5611.328125	-53.594433
5612.304688	-53.692177
5613.281250	-54.060005
5614.257812	-54.499481
5615.234375	-55.004055
5616.210938	-53.945084
5617.187500	-55.574497
5618.164062	-55.503929
5619.140625	-54.794846
5620.117188	-53.008263
5621.093750	-54.883854
5622.070312	-53.906723
5623.046875	-53.707222
5624.023438	-53.399403
5625.000000	-53.534664
5625.976562	-54.418613
5626.953125	-53.450237
5627.929688	-55.121357
5628.906250	-55.663296
5629.882812	-55.037121
5630.859375	-55.378571
5631.835938	-53.550220
5632.812500	-53.711739
5633.789062	-53.361694
5634.765625	-53.710869
5635.742188	-53.811710
5636.718750	-53.866810
5637.695312	-54.588921
5638.671875	-53.860966
5639.648438	-53.822456
5640.625000	-55.330090
5641.601562	-54.677841
5642.578125	-54.022488
5643.554688	-55.356007
5644.531250	-53.140026
5645.507812	-54.305534
5646.484375	-54.479187
5647.460938	-54.506760
5648.437500	-55.535290
5649.414062	-55.117916
5650.390625	-54.761829
5651.367188	-54.878208
5652.343750	-55.009632
5653.320312	-54.915779
5654.296875	-53.677773
5655.273438	-54.395931
5656.250000	-53.460770
5657.226562	-54.180523
5658.203125	-52.524101
5659.179688	-53.471970
5660.156250	-54.576000
5661.132812	-54.399559
5662.109375	-55.850441
5663.085938	-55.066334
5664.062500	-54.186646
5665.039062	-55.721695
5666.015625	-54.069313
5666.992188	-54.294621
5667.968750	-54.084393
5668.945312	-54.856838
5669.921875	-53.841869
5670.898438	-55.090469
5671.875000	-54.740944
5672.851562	-55.315258
5673.828125	-54.345074
5674.804688	-55.744183
5675.781250	-54.983456
5676.757812	-55.349251
5677.734375	-55.994125
5678.710938	-53.453777
5679.687500	-53.670818
5680.664062	-53.530418
5681.640625	-54.248962
5682.617188	-54.774288
5683.593750	-56.157131
5684.570312	-54.929562
5685.546875	-55.118809
5686.523438	-54.851566
5687.500000	-55.289185
5688.476562	-54.575787
5689.453125	-54.092964
5690.429688	-54.550716
5691.406250	-54.811371
5692.382812	-57.359398
5693.359375	-55.984138
5694.335938	-54.838863
5695.312500	-54.694706
5696.289062	-56.061489
5697.265625	-54.576157
5698.242188	-55.140869
5699.218750	-55.368614
5700.195312	-55.435291
5701.171875	-54.116108
5702.148438	-54.451664
5703.125000	-53.948044
5704.101562	-55.378754
5705.078125	-55.144424
5706.054688	-53.874268
5707.031250	-55.675907
5708.007812	-56.069767
5708.984375	-56.159782
5709.960938	-55.742329
5710.937500	-55.923859
5711.914062	-55.549591
5712.890625	-54.553513
5713.867188	-55.750187
5714.843750	-54.991291
5715.820312	-55.166546
5716.796875	-54.621868
5717.773438	-56.587959
5718.750000	-56.170322
5719.726562	-54.679718
5720.703125	-54.395649
5721.679688	-55.597404
5722.656250	-54.973305
5723.632812	-54.145100
5724.609375	-53.937004
5725.585938	-56.742313
5726.562500	-56.291496
5727.539062	-56.061592
5728.515625	-55.121155
5729.492188	-54.461185
5730.468750	-56.728416
5731.445312	-54.056046
5732.421875	-53.364876
5733.398438	-54.032974
5734.375000	-55.895794
5735.351562	-56.239243
5736.328125	-53.948437
5737.304688	-56.136856
5738.281250	-54.728882
5739.257812	-55.227776
5740.234375	-54.312870
5741.210938	-55.450871
5742.187500	-57.485531
5743.164062	-56.524563
5744.140625	-57.462086
5745.117188	-55.586765
5746.093750	-56.080029
5747.070312	-55.702740
5748.046875	-56.405556
5749.023438	-56.320129
5750.000000	-54.520702
5750.976562	-54.056362
5751.953125	-54.950584
5752.929688	-55.058807
5753.906250	-54.388718
5754.882812	-56.798027
5755.859375	-55.310608
5756.835938	-56.682541
5757.812500	-54.684055
5758.789062	-55.813412
5759.765625	-55.517765
5760.742188	-54.128811
5761.718750	-54.347713
5762.695312	-56.157074
5763.671875	-54.332935
5764.648438	-55.558212
5765.625000	-54.825726
5766.601562	-56.408852
5767.578125	-57.300594
5768.554688	-56.355930
5769.531250	-56.082386
5770.507812	-55.166180
5771.484375	-55.978313
5772.460938	-55.174759
5773.437500	-56.056057
5774.414062	-54.462132
5775.390625	-55.219494
5776.367188	-55.740330
5777.343750	-55.594383
5778.320312	-54.818214
5779.296875	-53.711548
5780.273438	-55.529110
5781.250000	-55.175991
5782.226562	-55.573818
5783.203125	-57.198994
5784.179688	-57.715473
5785.156250	-56.064724
5786.132812	-55.731171
5787.109375	-54.950027
5788.085938	-56.559814
5789.062500	-55.856010
5790.039062	-55.500038
5791.015625	-55.802063
5791.992188	-55.804974
5792.968750	-56.536160
5793.945312	-56.498047
5794.921875	-54.275440
5795.898438	-53.788975
5796.875000	-55.233227
5797.851562	-55.905338
5798.828125	-56.436077
5799.804688	-55.903427
5800.781250	-56.474003
5801.757812	-55.073898
5802.734375	-56.524693
5803.710938	-55.371521
5804.687500	-55.036469
5805.664062	-55.724445
5806.640625	-55.391087
5807.617188	-56.872162
5808.593750	-56.048267
5809.570312	-57.079784
5810.546875	-54.417675
5811.523438	-54.488575
5812.500000	-55.926086
5813.476562	-55.562458
5814.453125	-57.272850
5815.429688	-56.425629
5816.406250	-57.163921
5817.382812	-55.348248
5818.359375	-54.528030
5819.335938	-55.569988
5820.312500	-55.865738
5821.289062	-56.477299
5822.265625	-56.606453
5823.242188	-56.566929
5824.218750	-55.645584
5825.195312	-55.657566
5826.171875	-54.757259
5827.148438	-54.177849
5828.125000	-54.787220
5829.101562	-55.532078
5830.078125	-54.512939
5831.054688	-54.104210
5832.031250	-55.476490
5833.007812	-56.316067
5833.984375	-55.631001
5834.960938	-56.059204
5835.937500	-56.145061
5836.914062	-56.994991
5837.890625	-55.806126
5838.867188	-55.024982
5839.843750	-55.954475
5840.820312	-55.829411
5841.796875	-56.928654
5842.773438	-55.963428
5843.750000	-55.244720
5844.726562	-55.908794
5845.703125	-56.211742
5846.679688	-56.504837
5847.656250	-56.938244
5848.632812	-55.572220
5849.609375	-57.435509
5850.585938	-56.063313
5851.562500	-55.822502
5852.539062	-55.318504
5853.515625	-54.763321
5854.492188	-55.182301
5855.468750	-54.055225
5856.445312	-55.026134
5857.421875	-53.764587
5858.398438	-55.120888
5859.375000	-56.401550
5860.351562	-53.868759
5861.328125	-55.251816
5862.304688	-54.713203
5863.281250	-56.394073
5864.257812	-55.651730
5865.234375	-56.318012
5866.210938	-57.012493
5867.187500	-56.490818
5868.164062	-53.829617
5869.140625	-54.196033
5870.117188	-56.092712
5871.093750	-54.113312
5872.070312	-54.643040
5873.046875	-55.336716
5874.023438	-54.714123
5875.000000	-54.685871
5875.976562	-55.964279
5876.953125	-55.074921
5877.929688	-54.137077
5878.906250	-54.645603
5879.882812	-54.277840
5880.859375	-54.383835
5881.835938	-55.609325
5882.812500	-54.929058
5883.789062	-54.137962
5884.765625	-56.070023
5885.742188	-57.823208
5886.718750	-55.999306
5887.695312	-56.201881
5888.671875	-55.210323
5889.648438	-52.909309
5890.625000	-53.163246
5891.601562	-54.604088
5892.578125	-53.718880
5893.554688	-55.348438
5894.531250	-54.765030
5895.507812	-53.593300
5896.484375	-54.188343
5897.460938	-54.473309
5898.437500	-54.368477
5899.414062	-54.022030
5900.390625	-54.784695
5901.367188	-54.421406
5902.343750	-52.336124
5903.320312	-55.590153
5904.296875	-56.404354
5905.273438	-55.371754
5906.250000	-54.303318
5907.226562	-54.789932
5908.203125	-54.583920
5909.179688	-53.059460
5910.156250	-55.848289
5911.132812	-53.622925
5912.109375	-55.054840
5913.085938	-54.478748
5914.062500	-53.944836
5915.039062	-53.102570
5916.015625	-53.598808
5916.992188	-53.547276
5917.968750	-54.184341
5918.945312	-54.528942
5919.921875	-56.235355
5920.898438	-56.513531
5921.875000	-57.474583
5922.851562	-54.329185
5923.828125	-55.406422
5924.804688	-53.131279
5925.781250	-52.163277
5926.757812	-55.688858
5927.734375	-55.235813
5928.710938	-53.728561
5929.687500	-53.925003
5930.664062	-54.604694
5931.640625	-53.714783
5932.617188	-53.384247
5933.593750	-54.507992
5934.570312	-53.301945
5935.546875	-54.806984
5936.523438	-55.559174
5937.500000	-54.880978
5938.476562	-55.311836
5939.453125	-54.282093
5940.429688	-53.730747
5941.406250	-54.326706
5942.382812	-54.792011
5943.359375	-54.017509
5944.335938	-53.841751
5945.312500	-54.696297
5946.289062	-54.078724
5947.265625	-53.926941
5948.242188	-52.133686
5949.218750	-54.400616
5950.195312	-54.340908
5951.171875	-54.520962
5952.148438	-53.701893
5953.125000	-55.102432
5954.101562	-55.303349
5955.078125	-52.890614
5956.054688	-54.420418
5957.031250	-54.642796
5958.007812	-54.340267
5958.984375	-55.655270
5959.960938	-56.440102
5960.937500	-53.212780
5961.914062	-55.041664
5962.890625	-55.354328
5963.867188	-54.105270
5964.843750	-54.756783
5965.820312	-54.774857
5966.796875	-55.621521
5967.773438	-52.741566
5968.750000	-54.471813
5969.726562	-54.983391
5970.703125	-53.844639
5971.679688	-55.620247
5972.656250	-52.865665
5973.632812	-55.235432
5974.609375	-54.591446
5975.585938	-53.584797
5976.562500	-53.904354
5977.539062	-53.166740
5978.515625	-53.649597
5979.492188	-54.231899
5980.468750	-54.985081
5981.445312	-56.114185
5982.421875	-54.896729
5983.398438	-53.535397
5984.375000	-54.289669
5985.351562	-55.203430
5986.328125	-54.027431
5987.304688	-53.897030
5988.281250	-54.136513
5989.257812	-55.081661
5990.234375	-54.537827
5991.210938	-53.476040
5992.187500	-55.201126
5993.164062	-54.522594
5994.140625	-55.539429
5995.117188	-54.211021
5996.093750	-55.301273
5997.070312	-53.400013
5998.046875	-53.159897
5999.023438	-54.763901
6000.000000	-54.411682
6000.976562	-53.383667
6001.953125	-54.919338
6002.929688	-55.038681
6003.906250	-54.189438
6004.882812	-53.355053
6005.859375	-54.191933
6006.835938	-54.751034
6007.812500	-54.375427
6008.789062	-54.123108
6009.765625	-55.533550
6010.742188	-54.682037
6011.718750	-55.123482
6012.695312	-54.802551
6013.671875	-54.086784
6014.648438	-54.384445
6015.625000	-55.709507
6016.601562	-54.227528
6017.578125	-52.687500
6018.554688	-53.655441
6019.531250	-53.682629
6020.507812	-55.467232
6021.484375	-55.530506
6022.460938	-53.564262
6023.437500	-54.429054
6024.414062	-55.096172
6025.390625	-53.560303
6026.367188	-53.230251
6027.343750	-53.461533
6028.320312	-55.139603
6029.296875	-53.240234
6030.273438	-54.193825
6031.250000	-54.111618
6032.226562	-54.517326
6033.203125	-53.258522
6034.179688	-54.155262
6035.156250	-53.324436
6036.132812	-54.337940
6037.109375	-54.214497
6038.085938	-53.343079
6039.062500	-54.352386
6040.039062	-53.658989
6041.015625	-53.806545
6041.992188	-54.270641
6042.968750	-53.201572
6043.945312	-53.241558
6044.921875	-54.545822
6045.898438	-55.103451
6046.875000	-54.425255
6047.851562	-53.409203
6048.828125	-54.774147
6049.804688	-53.886806
6050.781250	-54.710991
6051.757812	-54.499004
6052.734375	-54.854404
6053.710938	-53.034069
6054.687500	-54.207073
6055.664062	-53.892780
6056.640625	-54.490055
6057.617188	-54.861488
6058.593750	-55.006840
6059.570312	-55.065926
6060.546875	-56.360481
6061.523438	-54.324413
6062.500000	-53.585350
6063.476562	-53.843578
6064.453125	-53.127243
6065.429688	-53.751991
6066.406250	-54.791157
6067.382812	-54.041264
6068.359375	-53.785122
6069.335938	-54.344746
6070.312500	-54.406906
6071.289062	-53.882248
6072.265625	-55.009781
6073.242188	-53.247120
6074.218750	-55.600998
6075.195312	-52.976151
6076.171875	-53.617916
6077.148438	-53.226330
6078.125000	-53.892441
6079.101562	-54.641193
6080.078125	-55.885471
6081.054688	-54.685154
6082.031250	-53.448101
6083.007812	-54.622517
6083.984375	-53.022614
6084.960938	-52.918346
6085.937500	-53.602116
6086.914062	-55.006668
6087.890625	-55.531349
6088.867188	-55.506855
6089.843750	-54.323082
6090.820312	-52.987724
6091.796875	-53.684361
6092.773438	-52.643024
6093.750000	-53.954262
6094.726562	-53.915916
6095.703125	-53.478306
6096.679688	-54.402256
6097.656250	-52.622932
6098.632812	-52.771980
6099.609375	-53.631062
6100.585938	-52.389648
6101.562500	-51.696011
6102.539062	-50.037182
6103.515625	-49.229977
6104.492188	-51.823841
6105.468750	-52.834171
6106.445312	-50.477852
6107.421875	-52.049541
6108.398438	-51.672962
6109.375000	-52.727623
6110.351562	-53.587025
6111.328125	-52.022423
6112.304688	-52.311001
6113.281250	-52.042778
6114.257812	-51.506344
6115.234375	-53.464401
6116.210938	-52.510883
6117.187500	-51.818096
6118.164062	-51.830727
6119.140625	-52.839699
6120.117188	-53.649570
6121.093750	-52.756725
6122.070312	-52.049156
6123.046875	-51.761787
6124.023438	-52.591599
6125.000000	-52.357716
6125.976562	-52.297386
6126.953125	-52.273029
6127.929688	-52.696358
6128.906250	-52.612019
6129.882812	-53.513260
6130.859375	-53.557575
6131.835938	-53.620846
6132.812500	-53.011532
6133.789062	-53.667881
6134.765625	-54.974598
6135.742188	-52.343174
6136.718750	-53.335178
6137.695312	-53.642475
6138.671875	-53.089729
6139.648438	-52.113922
6140.625000	-53.614510
6141.601562	-52.430595
6142.578125	-50.768036
6143.554688	-52.247341
6144.531250	-52.647076
6145.507812	-53.172081
6146.484375	-52.966492
6147.460938	-52.608269
6148.437500	-53.980072
6149.414062	-52.930744
6150.390625	-53.260986
6151.367188	-52.653057
6152.343750	-52.820110
6153.320312	-52.333614
6154.296875	-54.127186
6155.273438	-52.575428
6156.250000	-53.224167
6157.226562	-53.678123
6158.203125	-53.212738
6159.179688	-53.603565
6160.156250	-53.855335
6161.132812	-53.163895
6162.109375	-52.915142
6163.085938	-52.720730
6164.062500	-51.768719
6165.039062	-52.574852
6166.015625	-52.368217
6166.992188	-52.603188
6167.968750	-52.791988
6168.945312	-52.559841
6169.921875	-52.084324
6170.898438	-52.653473
6171.875000	-52.986286
6172.851562	-52.905838
6173.828125	-54.100368
6174.804688	-53.938946
6175.781250	-52.332108
6176.757812	-52.995438
6177.734375	-52.187557
6178.710938	-52.221539
6179.687500	-52.537582
6180.664062	-51.841949
6181.640625	-53.331322
6182.617188	-52.277164
6183.593750	-52.243103
6184.570312	-53.019855
6185.546875	-52.116333
6186.523438	-52.027145
6187.500000	-51.537415
6188.476562	-52.550159
6189.453125	-52.886948
6190.429688	-52.011757
6191.406250	-51.359528
6192.382812	-52.753670
6193.359375	-51.704697
6194.335938	-51.880634
6195.312500	-53.705143
6196.289062	-52.354439
6197.265625	-52.077927
6198.242188	-51.478306
6199.218750	-51.646172
6200.195312	-52.630302
6201.171875	-51.585171
6202.148438	-52.242565
6203.125000	-52.765350
6204.101562	-51.908897
6205.078125	-52.929779
6206.054688	-51.783207
6207.031250	-51.529846
6208.007812	-51.935768
6208.984375	-52.509403
6209.960938	-52.482780
6210.937500	-50.649853
6211.914062	-51.574848
6212.890625	-52.283989
6213.867188	-51.187096
6214.843750	-52.010685
6215.820312	-52.627308
6216.796875	-53.184734
6217.773438	-53.350712
6218.750000	-52.825294
6219.726562	-52.939003
6220.703125	-51.848972
6221.679688	-51.949203
6222.656250	-52.324596
6223.632812	-51.453770
6224.609375	-52.501003
6225.585938	-50.801212
6226.562500	-51.949291
6227.539062	-51.438660
6228.515625	-52.511959
6229.492188	-51.786163
6230.468750	-51.754463
6231.445312	-52.031883
6232.421875	-52.455555
6233.398438	-52.021725
6234.375000	-51.688702
6235.351562	-51.645439
6236.328125	-51.746338
6237.304688	-52.431137
6238.281250	-51.921356
6239.257812	-53.511429
6240.234375	-52.656715
6241.210938	-51.967789
6242.187500	-52.520218
6243.164062	-52.758362
6244.140625	-53.007332
6245.117188	-53.331776
6246.093750	-52.527504
6247.070312	-52.191200
6248.046875	-51.749943
6249.023438	-51.523464
6250.000000	-52.690796
6250.976562	-51.300793
6251.953125	-52.098255
6252.929688	-52.278736
6253.906250	-52.297325
6254.882812	-51.924816
6255.859375	-52.898396
6256.835938	-52.356377
6257.812500	-53.467937
6258.789062	-52.791805
6259.765625	-52.660934
6260.742188	-51.615517
6261.718750	-52.844784
6262.695312	-53.685905
6263.671875	-54.260445
6264.648438	-51.937538
6265.625000	-53.457703
6266.601562	-53.049873
6267.578125	-52.001663
6268.554688	-52.485756
6269.531250	-53.869789
6270.507812	-53.858608
6271.484375	-52.917412
6272.460938	-52.977936
6273.437500	-53.912895
6274.414062	-54.691616
6275.390625	-52.867561
6276.367188	-53.363647
6277.343750	-52.951958
6278.320312	-53.369873
6279.296875	-52.822384
6280.273438	-52.630070
6281.250000	-52.381573
6282.226562	-52.056934
6283.203125	-52.566216
6284.179688	-52.862793
6285.156250	-54.027191
6286.132812	-52.223690
6287.109375	-52.906448
6288.085938	-53.614777
6289.062500	-53.314548
6290.039062	-53.161903
6291.015625	-53.958687
6291.992188	-54.892704
6292.968750	-54.926651
6293.945312	-54.074322
6294.921875	-55.430843
6295.898438	-52.566776
6296.875000	-54.852032
6297.851562	-52.702396
6298.828125	-52.195858
6299.804688	-53.493778
6300.781250	-54.074051
6301.757812	-54.451313
6302.734375	-54.320599
6303.710938	-54.224064
6304.687500	-53.788342
6305.664062	-54.101658
6306.640625	-53.556698
6307.617188	-53.962780
6308.593750	-51.820843
6309.570312	-54.822750
6310.546875	-54.864307
6311.523438	-54.431087
6312.500000	-52.840694
6313.476562	-55.313686
6314.453125	-53.811893
6315.429688	-52.870758
6316.406250	-53.471989
6317.382812	-53.483047
6318.359375	-56.110931
6319.335938	-55.903019
6320.312500	-55.077763
6321.289062	-55.143185
6322.265625	-54.105606
6323.242188	-54.256565
6324.218750	-53.262798
6325.195312	-53.322464
6326.171875	-52.919209
6327.148438	-54.164925
6328.125000	-54.675575
6329.101562	-54.145378
6330.078125	-54.135948
6331.054688	-53.047127
6332.031250	-52.852325
6333.007812	-53.439186
6333.984375	-53.909081
6334.960938	-54.314392
6335.937500	-55.413296
6336.914062	-55.238285
6337.890625	-55.069736
6338.867188	-55.215561
6339.843750	-56.030922
6340.820312	-55.063515
6341.796875	-53.374680
6342.773438	-53.570873
6343.750000	-54.849312
6344.726562	-54.999802
6345.703125	-53.156338
6346.679688	-51.941456
6347.656250	-54.101803
6348.632812	-54.271000
6349.609375	-54.017029
6350.585938	-55.475758
6351.562500	-52.723171
6352.539062	-55.407532
6353.515625	-56.134125
6354.492188	-53.957935
6355.468750	-54.723911
6356.445312	-55.063145
6357.421875	-56.872398
6358.398438	-54.971004
6359.375000	-56.143822
6360.351562	-54.678246
6361.328125	-53.595806
6362.304688	-54.218903
6363.281250	-54.228798
6364.257812	-53.033447
6365.234375	-55.123234
6366.210938	-56.304333
6367.187500	-54.077991
6368.164062	-53.878948
6369.140625	-53.600952
6370.117188	-54.853607
6371.093750	-56.294502
6372.070312	-56.194126
6373.046875	-56.022030
6374.023438	-54.258160
6375.000000	-56.489700
6375.976562	-56.878586
6376.953125	-55.309235
6377.929688	-54.417957
6378.906250	-52.749981
6379.882812	-53.926224
6380.859375	-54.627235
6381.835938	-55.913845
6382.812500	-56.007267
6383.789062	-56.730480
6384.765625	-55.965225
6385.742188	-55.150261
6386.718750	-54.959244
6387.695312	-56.382019
6388.671875	-56.795528
6389.648438	-55.361015
6390.625000	-55.564289
6391.601562	-55.560692
6392.578125	-56.699596
6393.554688	-56.901302
6394.531250	-54.208080
6395.507812	-55.212128
6396.484375	-57.570885
6397.460938	-57.378567
6398.437500	-56.411026
6399.414062	-54.984116
6400.390625	-54.934650
6401.367188	-55.190487
6402.343750	-55.563221
6403.320312	-55.433243
6404.296875	-56.411697
6405.273438	-58.110016
6406.250000	-57.182907
6407.226562	-55.001480
6408.203125	-56.162704
6409.179688	-56.877762
6410.156250	-55.853809
6411.132812	-54.833920
6412.109375	-55.652985
6413.085938	-57.176086
6414.062500	-56.554153
6415.039062	-52.545677
6416.015625	-55.550751
6416.992188	-57.642994
6417.968750	-56.979214
6418.945312	-55.126907
6419.921875	-56.267757
6420.898438	-57.236263
6421.875000	-57.242443
6422.851562	-56.775967
6423.828125	-57.180710
6424.804688	-55.834679
6425.781250	-57.712456
6426.757812	-57.373554
6427.734375	-56.281986
6428.710938	-57.082104
6429.687500	-58.177322
6430.664062	-58.063198
6431.640625	-59.008392
6432.617188	-57.653816
6433.593750	-54.614220
6434.570312	-55.424217
6435.546875	-56.316799
6436.523438	-56.698338
6437.500000	-55.822781
6438.476562	-57.108112
6439.453125	-57.398582
6440.429688	-57.520142
6441.406250	-56.220078
6442.382812	-57.022968
6443.359375	-56.623444
6444.335938	-57.839787
6445.312500	-58.761150
6446.289062	-58.328476
6447.265625	-56.338737
6448.242188	-54.122635
6449.218750	-58.726990
6450.195312	-56.159199
6451.171875	-58.099052
6452.148438	-58.086678
6453.125000	-55.765038
6454.101562	-57.835472
6455.078125	-58.285473
6456.054688	-58.083397
6457.031250	-56.524048
6458.007812	-54.310150
6458.984375	-57.759575
6459.960938	-58.737659
6460.937500	-57.492523
6461.914062	-58.365059
6462.890625	-59.441402
6463.867188	-58.313961
6464.843750	-56.440708
6465.820312	-57.757187
6466.796875	-58.811340
6467.773438	-57.165882
6468.750000	-58.809284
6469.726562	-59.353798
6470.703125	-58.071785
6471.679688	-57.563473
6472.656250	-56.442638
6473.632812	-57.201336
6474.609375	-57.388378
6475.585938	-56.977520
6476.562500	-56.920288
6477.539062	-57.819046
6478.515625	-59.247646
6479.492188	-58.234615
6480.468750	-59.000847
6481.445312	-58.701500
6482.421875	-59.697842
6483.398438	-57.388794
6484.375000	-58.238773
6485.351562	-57.704128
6486.328125	-59.517624
6487.304688	-59.482647
6488.281250	-58.104969
6489.257812	-59.108078
6490.234375	-59.157864
6491.210938	-57.390408
6492.187500	-57.320530
6493.164062	-58.638355
6494.140625	-59.545334
6495.117188	-58.802166
6496.093750	-56.945278
6497.070312	-57.725777
6498.046875	-58.648678
6499.023438	-58.437263
6500.000000	-59.139584
6500.976562	-59.133854
6501.953125	-59.615387
6502.929688	-58.130264
6503.906250	-58.041939
6504.882812	-59.371822
6505.859375	-58.345917
6506.835938	-57.702213
6507.812500	-58.004368
6508.789062	-57.870884
6509.765625	-58.041134
6510.742188	-58.725227
6511.718750	-58.998981
6512.695312	-59.736736
6513.671875	-59.552719
6514.648438	-58.847942
6515.625000	-58.784779
6516.601562	-59.446522
6517.578125	-57.958607
6518.554688	-59.439621
6519.531250	-59.782597
6520.507812	-60.341587
6521.484375	-58.482079
6522.460938	-59.752827
6523.437500	-58.181904
6524.414062	-59.547146
6525.390625	-58.740005
6526.367188	-59.777954
6527.343750	-58.041901
6528.320312	-59.140999
6529.296875	-59.263851
6530.273438	-57.233189
6531.250000	-59.870720
6532.226562	-59.226212
6533.203125	-58.570263
6534.179688	-57.804291
6535.156250	-59.479233
6536.132812	-59.316185
6537.109375	-58.527958
6538.085938	-58.583477
6539.062500	-57.484257
6540.039062	-58.074844
6541.015625	-61.153408
6541.992188	-60.391323
6542.968750	-59.903481
6543.945312	-59.147919
6544.921875	-59.694809
6545.898438	-59.760818
6546.875000	-59.584637
6547.851562	-58.060886
6548.828125	-59.797131
6549.804688	-60.464359
6550.781250	-59.315147
6551.757812	-59.108295
6552.734375	-58.218628
6553.710938	-59.070629
6554.687500	-58.646214
6555.664062	-58.784439
6556.640625	-59.512310
6557.617188	-58.414768
6558.593750	-58.664909
6559.570312	-59.396107
6560.546875	-57.773869
6561.523438	-60.137810
6562.500000	-59.725845
6563.476562	-59.195297
6564.453125	-59.581268
6565.429688	-59.066753
6566.406250	-59.296276
6567.382812	-58.914883
6568.359375	-59.973328
6569.335938	-59.299587
6570.312500	-59.991791
6571.289062	-59.560482
6572.265625	-58.510544
6573.242188	-59.253380
6574.218750	-60.714813
6575.195312	-61.055023
6576.171875	-60.415859
6577.148438	-58.669640
6578.125000	-58.497265
6579.101562	-59.658840
6580.078125	-59.334019
6581.054688	-61.142094
6582.031250	-60.766521
6583.007812	-59.766346
6583.984375	-58.042397
6584.960938	-60.212578
6585.937500	-58.538246
6586.914062	-59.592674
6587.890625	-57.971249
6588.867188	-59.138172
6589.843750	-58.425167
6590.820312	-59.957893
6591.796875	-60.522614
6592.773438	-60.630035
6593.750000	-59.952797
6594.726562	-58.963543
6595.703125	-57.944622
6596.679688	-58.727371
6597.656250	-58.936371
6598.632812	-60.003971
6599.609375	-60.712208
6600.585938	-58.495605
6601.562500	-59.200462
6602.539062	-58.829205
6603.515625	-59.657036
6604.492188	-59.028816
6605.468750	-59.112480
6606.445312	-58.629841
6607.421875	-58.622669
6608.398438	-58.361397
6609.375000	-58.815384
6610.351562	-57.871883
6611.328125	-59.050285
6612.304688	-60.120770
6613.281250	-58.065773
6614.257812	-59.357307
6615.234375	-59.313622
6616.210938	-60.095985
6617.187500	-59.539379
6618.164062	-60.063038
6619.140625	-59.788094
6620.117188	-61.082874
6621.093750	-59.017239
6622.070312	-58.494751
6623.046875	-59.008915
6624.023438	-58.368317
6625.000000	-59.275242
6625.976562	-60.160362
6626.953125	-59.913143
6627.929688	-60.149227
6628.906250	-60.037460
6629.882812	-58.685333
6630.859375	-59.495140
6631.835938	-58.817963
6632.812500	-60.111591
6633.789062	-59.595989
6634.765625	-60.176090
6635.742188	-60.936127
6636.718750	-60.532364
6637.695312	-59.996006
6638.671875	-59.689587
6639.648438	-59.487694
6640.625000	-60.348610
6641.601562	-59.033909
6642.578125	-58.728817
6643.554688	-59.369541
6644.531250	-60.096371
6645.507812	-59.877304
6646.484375	-59.734451
6647.460938	-60.062180
6648.437500	-59.643257
6649.414062	-59.649876
6650.390625	-60.591259
6651.367188	-59.526337
6652.343750	-59.355194
6653.320312	-60.859669
6654.296875	-60.823566
6655.273438	-60.339893
6656.250000	-59.181477
6657.226562	-58.224701
6658.203125	-59.667728
6659.179688	-59.765297
6660.156250	-59.402859
6661.132812	-61.085751
6662.109375	-59.904106
6663.085938	-59.998814
6664.062500	-60.395107
6665.039062	-60.166374
6666.015625	-59.661335
6666.992188	-59.727482
6667.968750	-61.228058
6668.945312	-59.220398
6669.921875	-60.252270
6670.898438	-60.012436
6671.875000	-59.120209
6672.851562	-58.560654
6673.828125	-60.465778
6674.804688	-59.081314
6675.781250	-60.064705
6676.757812	-58.636860
6677.734375	-60.618607
6678.710938	-59.782402
6679.687500	-58.968239
6680.664062	-60.436996
6681.640625	-59.362583
6682.617188	-59.132633
6683.593750	-59.428200
6684.570312	-61.945389
6685.546875	-59.549667
6686.523438	-60.282063
6687.500000	-60.302486
6688.476562	-60.117111
6689.453125	-60.193211
6690.429688	-60.966614
6691.406250	-61.257584
6692.382812	-58.663124
6693.359375	-59.258556
6694.335938	-58.111439
6695.312500	-59.524166
6696.289062	-58.306881
6697.265625	-60.906437
6698.242188	-62.101803
6699.218750	-60.836941
6700.195312	-60.273388
6701.171875	-59.266811
6702.148438	-61.767838
6703.125000	-60.132233
6704.101562	-59.751244
6705.078125	-60.344860
6706.054688	-61.013386
6707.031250	-60.531696
6708.007812	-60.187241
6708.984375	-59.978512
6709.960938	-60.394081
6710.937500	-60.102600
6711.914062	-61.203747
6712.890625	-60.249245
6713.867188	-60.415462
6714.843750	-60.827599
6715.820312	-60.111076
6716.796875	-59.934937
6717.773438	-59.550594
6718.750000	-60.157688
6719.726562	-61.394966
6720.703125	-61.671318
6721.679688	-60.646088
6722.656250	-60.354034
6723.632812	-62.375298
6724.609375	-62.419941
6725.585938	-59.930641
6726.562500	-61.012753
6727.539062	-60.616356
6728.515625	-61.479809
6729.492188	-60.594486
6730.468750	-59.599648
6731.445312	-60.851837
6732.421875	-60.892048
6733.398438	-60.576302
6734.375000	-59.184769
6735.351562	-60.944977
6736.328125	-60.149612
6737.304688	-59.896656
6738.281250	-61.937729
6739.257812	-62.007019
6740.234375	-61.581974
6741.210938	-61.528404
6742.187500	-60.992802
6743.164062	-60.045517
6744.140625	-60.845592
6745.117188	-60.804050
6746.093750	-60.083538
6747.070312	-61.359238
6748.046875	-61.761398
6749.023438	-61.580914
6750.000000	-61.344398
6750.976562	-60.345875
6751.953125	-60.464592
6752.929688	-61.026119
6753.906250	-60.942574
6754.882812	-60.716217
6755.859375	-61.410568
6756.835938	-60.867386
6757.812500	-61.172005
6758.789062	-61.926586
6759.765625	-61.440109
6760.742188	-59.761147
6761.718750	-59.720730
6762.695312	-59.860809
6763.671875	-61.863785
6764.648438	-61.493725
6765.625000	-61.917618
6766.601562	-61.467949
6767.578125	-61.369576
6768.554688	-61.447121
6769.531250	-61.275738
6770.507812	-59.886787
6771.484375	-59.745476
6772.460938	-60.668518
6773.437500	-61.193703
6774.414062	-61.153065
6775.390625	-61.325699
6776.367188	-61.100464
6777.343750	-62.577454
6778.320312	-61.110184
6779.296875	-61.472595
6780.273438	-60.437298
6781.250000	-61.745537
6782.226562	-60.658966
6783.203125	-60.018517
6784.179688	-62.567600
6785.156250	-62.644176
6786.132812	-60.759319
6787.109375	-61.343910
6788.085938	-61.823479
6789.062500	-62.347370
6790.039062	-61.765663
6791.015625	-61.599075
6791.992188	-62.414131
6792.968750	-61.569706
6793.945312	-61.232056
6794.921875	-62.497517
6795.898438	-61.827797
6796.875000	-62.186317
6797.851562	-62.655212
6798.828125	-62.346252
6799.804688	-62.582592
6800.781250	-62.239716
6801.757812	-61.093277
6802.734375	-60.448608
6803.710938	-61.669529
6804.687500	-60.576401
6805.664062	-62.945080
6806.640625	-61.982643
6807.617188	-61.281940
6808.593750	-62.299938
6809.570312	-61.406235
6810.546875	-61.276829
6811.523438	-61.590355
6812.500000	-61.927746
6813.476562	-61.057816
6814.453125	-62.191719
6815.429688	-61.954205
6816.406250	-61.816906
6817.382812	-62.573742
6818.359375	-62.534397
6819.335938	-62.175346
6820.312500	-62.167488
6821.289062	-62.076542
6822.265625	-62.328972
6823.242188	-62.118431
6824.218750	-61.588333
6825.195312	-62.989140
6826.171875	-62.126320
6827.148438	-62.110107
6828.125000	-61.679028
6829.101562	-60.116245
6830.078125	-61.187321
6831.054688	-60.700867
6832.031250	-61.317501
6833.007812	-61.809891
6833.984375	-61.990993
6834.960938	-63.763664
6835.937500	-63.443123
6836.914062	-61.975761
6837.890625	-61.960800
6838.867188	-62.371655
6839.843750	-62.389046
6840.820312	-61.525803
6841.796875	-61.723854
6842.773438	-60.735912
6843.750000	-60.923687
6844.726562	-62.284481
6845.703125	-59.909832
6846.679688	-61.672398
6847.656250	-62.025799
6848.632812	-62.229015
6849.609375	-62.255352
6850.585938	-62.931564
6851.562500	-63.052242
6852.539062	-63.341862
6853.515625	-62.115662
6854.492188	-62.764690
6855.468750	-63.406456
6856.445312	-63.977596
6857.421875	-62.429382
6858.398438	-61.716415
6859.375000	-62.220642
6860.351562	-62.366627
6861.328125	-61.811806
6862.304688	-62.210075
6863.281250	-62.033920
6864.257812	-62.810001
6865.234375	-63.268867
6866.210938	-61.793236
6867.187500	-62.114166
6868.164062	-62.107044
6869.140625	-62.616386
6870.117188	-61.906628
6871.093750	-62.210217
6872.070312	-64.518318
6873.046875	-61.999470
6874.023438	-61.876968
6875.000000	-62.510792
6875.976562	-61.539970
6876.953125	-62.057064
6877.929688	-61.753548
6878.906250	-61.365097
6879.882812	-62.470356
6880.859375	-61.847202
6881.835938	-62.080318
6882.812500	-62.635643
6883.789062	-62.337448
6884.765625	-65.052368
6885.742188	-62.065723
6886.718750	-61.934681
6887.695312	-62.442055
6888.671875	-63.444431
6889.648438	-62.862816
6890.625000	-60.980862
6891.601562	-62.147385
6892.578125	-63.090870
6893.554688	-63.023785
6894.531250	-62.210140
6895.507812	-62.865852
6896.484375	-63.334511
6897.460938	-61.507259
6898.437500	-61.185276
6899.414062	-60.681942
6900.390625	-62.103916
6901.367188	-62.508701
6902.343750	-61.672226
6903.320312	-62.017788
6904.296875	-63.299370
6905.273438	-61.626884
6906.250000	-61.373264
6907.226562	-62.812531
6908.203125	-62.307976
6909.179688	-63.716915
6910.156250	-62.391708
6911.132812	-62.202351
6912.109375	-62.640099
6913.085938	-61.410973
6914.062500	-61.641392
6915.039062	-61.709244
6916.015625	-61.794041
6916.992188	-63.300240
6917.968750	-61.469215
6918.945312	-63.168499
6919.921875	-62.288143
6920.898438	-61.945259
6921.875000	-62.137562
6922.851562	-61.863968
6923.828125	-61.014896
6924.804688	-63.554253
6925.781250	-63.063107
6926.757812	-62.567440
6927.734375	-63.569401
6928.710938	-62.007885
6929.687500	-62.623119
6930.664062	-62.715645
6931.640625	-61.778042
6932.617188	-62.479145
6933.593750	-61.789215
6934.570312	-61.338341
6935.546875	-62.000103
6936.523438	-62.593685
6937.500000	-61.838135
6938.476562	-62.088818
6939.453125	-62.134338
6940.429688	-62.055733
6941.406250	-65.317856
6942.382812	-63.578831
6943.359375	-62.623417
6944.335938	-61.087940
6945.312500	-63.216251
6946.289062	-62.645416
6947.265625	-61.854870
6948.242188	-63.074593
6949.218750	-62.555862
6950.195312	-62.543320
6951.171875	-62.848885
6952.148438	-62.633232
6953.125000	-61.576111
6954.101562	-62.080273
6955.078125	-62.141712
6956.054688	-63.583584
6957.031250	-63.717377
6958.007812	-63.443645
6958.984375	-64.150879
6959.960938	-63.441818
6960.937500	-62.019371
6961.914062	-62.592388
6962.890625	-62.600086
6963.867188	-61.597919
6964.843750	-62.984016
6965.820312	-61.073837
6966.796875	-61.039127
6967.773438	-61.983528
6968.750000	-63.198593
6969.726562	-62.079201
6970.703125	-62.846504
6971.679688	-63.822876
6972.656250	-62.393581
6973.632812	-62.803768
6974.609375	-61.797184
6975.585938	-61.661751
6976.562500	-61.627728
6977.539062	-61.780396
6978.515625	-62.629730
6979.492188	-63.726852
6980.468750	-61.715473
6981.445312	-62.140194
6982.421875	-61.284504
6983.398438	-61.279072
6984.375000	-61.935219
6985.351562	-62.554630
6986.328125	-61.933960
6987.304688	-62.913837
6988.281250	-63.367332
6989.257812	-61.500057
6990.234375	-62.662590
6991.210938	-61.443180
6992.187500	-62.477695
6993.164062	-62.171371
6994.140625	-61.504490
6995.117188	-62.739384
6996.093750	-62.092197
6997.070312	-62.039173
6998.046875	-63.592205
6999.023438	-61.933556
7000.000000	-61.907677
7000.976562	-61.640160
7001.953125	-62.947617
7002.929688	-63.631531
7003.906250	-61.738480
7004.882812	-61.420086
7005.859375	-61.805695
7006.835938	-61.253307
7007.812500	-61.915005
7008.789062	-62.889427
7009.765625	-62.995499
7010.742188	-61.855251
7011.718750	-62.071056
7012.695312	-63.835041
7013.671875	-62.980927
7014.648438	-62.665833
7015.625000	-62.674019
7016.601562	-61.990410
7017.578125	-61.571476
7018.554688	-61.905266
7019.531250	-62.189381
7020.507812	-63.205479
7021.484375	-62.948929
7022.460938	-61.932362
7023.437500	-63.138458
7024.414062	-61.756706
7025.390625	-60.891472
7026.367188	-61.776833
7027.343750	-61.152771
7028.320312	-61.799469
7029.296875	-62.237534
7030.273438	-63.409176
7031.250000	-62.558426
7032.226562	-63.276264
7033.203125	-63.388927
7034.179688	-62.624317
7035.156250	-62.886154
7036.132812	-62.707100
7037.109375	-62.184620
7038.085938	-62.618027
7039.062500	-63.343960
7040.039062	-63.364029
7041.015625	-62.507748
7041.992188	-64.135902
7042.968750	-62.471664
7043.945312	-63.338921
7044.921875	-62.817966
7045.898438	-62.306389
7046.875000	-62.187943
7047.851562	-61.972893
7048.828125	-62.674850
7049.804688	-62.050938
7050.781250	-62.018890
7051.757812	-63.744503
7052.734375	-61.399021
7053.710938	-62.153347
7054.687500	-62.415897
7055.664062	-62.265469
7056.640625	-62.363605
7057.617188	-63.021374
7058.593750	-63.371929
7059.570312	-62.296955
7060.546875	-63.415073
7061.523438	-62.943684
7062.500000	-62.442322
7063.476562	-63.139847
7064.453125	-62.606258
7065.429688	-61.324997
7066.406250	-61.937782
7067.382812	-63.437328
7068.359375	-62.351437
7069.335938	-63.516415
7070.312500	-62.740429
7071.289062	-61.998768
7072.265625	-61.534225
7073.242188	-61.866245
7074.218750	-61.899784
7075.195312	-63.291451
7076.171875	-62.326710
7077.148438	-62.724392
7078.125000	-63.203949
7079.101562	-63.282909
7080.078125	-64.549179
7081.054688	-62.863613
7082.031250	-62.440258
7083.007812	-63.439854
7083.984375	-63.331635
7084.960938	-62.837666
7085.937500	-63.729469
7086.914062	-62.386604
7087.890625	-61.333828
7088.867188	-63.086639
7089.843750	-62.144566
7090.820312	-61.854759
7091.796875	-64.100471
7092.773438	-63.245441
7093.750000	-63.491760
7094.726562	-62.594818
7095.703125	-62.622322
7096.679688	-61.897404
7097.656250	-62.357754
7098.632812	-62.266716
7099.609375	-63.000935
7100.585938	-62.925632
7101.562500	-62.786560
7102.539062	-62.365250
7103.515625	-62.912071
7104.492188	-62.755470
7105.468750	-62.527958
7106.445312	-62.947746
7107.421875	-62.924866
7108.398438	-63.689114
7109.375000	-62.712063
7110.351562	-63.924767
7111.328125	-63.699715
7112.304688	-64.420868
7113.281250	-63.136086
7114.257812	-63.388855
7115.234375	-62.320900
7116.210938	-62.725155
7117.187500	-63.345467
7118.164062	-62.703789
7119.140625	-63.302475
7120.117188	-63.395924
7121.093750	-62.134331
7122.070312	-62.439125
7123.046875	-62.510971
7124.023438	-63.000309
7125.000000	-61.718761
7125.976562	-62.777748
7126.953125	-62.155258
7127.929688	-62.460423
7128.906250	-63.626598
7129.882812	-63.123230
7130.859375	-64.554184
7131.835938	-63.466167
7132.812500	-63.569954
7133.789062	-63.300896
7134.765625	-62.847260
7135.742188	-63.029453
7136.718750	-64.111832
7137.695312	-62.294189
7138.671875	-63.811394
7139.648438	-62.069057
7140.625000	-62.133492
7141.601562	-62.402092
7142.578125	-63.317699
7143.554688	-62.979229
7144.531250	-62.343689
7145.507812	-62.378445
7146.484375	-63.603737
7147.460938	-63.770027
7148.437500	-63.678215
7149.414062	-63.308811
7150.390625	-63.115372
7151.367188	-63.265308
7152.343750	-64.573318
7153.320312	-62.770687
7154.296875	-63.679726
7155.273438	-64.285873
7156.250000	-63.571529
7157.226562	-63.268440
7158.203125	-62.762096
7159.179688	-63.716095
7160.156250	-63.272091
7161.132812	-63.314281
7162.109375	-64.144615
7163.085938	-63.163284
7164.062500	-62.490292
7165.039062	-64.339302
7166.015625	-62.477287
7166.992188	-62.997940
7167.968750	-63.988705
7168.945312	-63.194103
7169.921875	-62.604958
7170.898438	-63.069031
7171.875000	-63.447559
7172.851562	-63.200138
7173.828125	-61.496361
7174.804688	-63.014381
7175.781250	-63.953934
7176.757812	-62.956123
7177.734375	-62.906197
7178.710938	-62.398590
7179.687500	-62.959957
7180.664062	-64.231346
7181.640625	-64.196518
7182.617188	-64.484329
7183.593750	-64.819611
7184.570312	-62.275108
7185.546875	-63.766281
7186.523438	-63.828136
7187.500000	-62.492249
7188.476562	-64.679680
7189.453125	-63.424911
7190.429688	-63.848339
7191.406250	-65.782150
7192.382812	-63.550240
7193.359375	-63.457821
7194.335938	-63.257565
7195.312500	-62.833454
7196.289062	-63.596325
7197.265625	-63.730999
7198.242188	-62.736027
7199.218750	-63.674370
7200.195312	-64.700684
7201.171875	-63.490620
7202.148438	-64.430801
7203.125000	-62.812477
7204.101562	-63.717316
7205.078125	-62.899502
7206.054688	-64.739799
7207.031250	-63.662743
7208.007812	-63.933922
7208.984375	-63.607582
7209.960938	-62.993565
7210.937500	-64.929825
7211.914062	-65.262054
7212.890625	-63.998539
7213.867188	-63.982681
7214.843750	-63.645119
7215.820312	-63.817471
7216.796875	-64.905685
7217.773438	-64.778244
7218.750000	-64.608673
7219.726562	-65.446854
7220.703125	-64.179993
7221.679688	-64.216064
7222.656250	-64.995552
7223.632812	-64.026428
7224.609375	-63.009781
7225.585938	-63.514397
7226.562500	-65.672310
7227.539062	-65.139168
7228.515625	-64.198921
7229.492188	-63.983177
7230.468750	-64.317177
7231.445312	-65.438026
7232.421875	-64.501015
7233.398438	-65.022079
7234.375000	-64.565338
7235.351562	-64.621155
7236.328125	-65.633255
7237.304688	-63.177261
7238.281250	-63.976227
7239.257812	-64.841827
7240.234375	-65.970825
7241.210938	-65.536240
7242.187500	-64.763908
7243.164062	-66.203850
7244.140625	-65.199379
7245.117188	-65.538147
7246.093750	-64.423393
7247.070312	-64.590569
7248.046875	-65.721619
7249.023438	-66.864754
7250.000000	-65.798042
7250.976562	-64.778160
7251.953125	-66.874924
7252.929688	-64.666466
7253.906250	-65.632393
7254.882812	-65.043152
7255.859375	-63.604374
7256.835938	-65.341042
7257.812500	-65.045326
7258.789062	-65.882706
7259.765625	-65.334274
7260.742188	-65.405708
7261.718750	-65.813423
7262.695312	-65.497810
7263.671875	-64.711517
7264.648438	-65.201050
7265.625000	-65.303307
7266.601562	-64.360611
7267.578125	-65.335449
7268.554688	-65.071404
7269.531250	-65.984436
7270.507812	-67.395126
7271.484375	-65.603523
7272.460938	-65.744789
7273.437500	-66.696152
7274.414062	-66.716705
7275.390625	-66.305702
7276.367188	-63.896748
7277.343750	-64.681480
7278.320312	-65.981529
7279.296875	-65.149826
7280.273438	-66.248802
7281.250000	-67.536644
7282.226562	-67.309273
7283.203125	-65.880119
7284.179688	-65.982460
7285.156250	-66.704216
7286.132812	-65.747757
7287.109375	-65.819817
7288.085938	-66.070786
7289.062500	-64.447426
7290.039062	-66.096527
7291.015625	-64.333542
7291.992188	-65.099312
7292.968750	-66.699059
7293.945312	-65.381577
7294.921875	-67.825516
7295.898438	-66.904694
7296.875000	-65.488335
7297.851562	-65.591751
7298.828125	-64.377792
7299.804688	-65.337173
7300.781250	-65.405220
7301.757812	-65.428307
7302.734375	-64.532616
7303.710938	-66.288200
7304.687500	-66.949310
7305.664062	-65.949745
7306.640625	-65.491020
7307.617188	-66.020294
7308.593750	-66.802574
7309.570312	-65.200066
7310.546875	-66.510162
7311.523438	-65.745689
7312.500000	-66.451828
7313.476562	-67.315353
7314.453125	-66.279831
7315.429688	-65.140648
7316.406250	-64.715996
7317.382812	-65.489853
7318.359375	-67.447197
7319.335938	-66.924828
7320.312500	-65.992500
7321.289062	-66.159752
7322.265625	-65.203911
7323.242188	-66.809395
7324.218750	-66.723213
7325.195312	-67.729675
7326.171875	-68.442329
7327.148438	-67.337166
7328.125000	-66.382568
7329.101562	-66.590248
7330.078125	-66.486160
7331.054688	-66.095917
7332.031250	-66.217636
7333.007812	-65.964333
7333.984375	-65.594933
7334.960938	-67.417999
7335.937500	-67.826500
7336.914062	-66.479568
7337.890625	-65.582558
7338.867188	-67.260170
7339.843750	-67.578560
7340.820312	-67.730080
7341.796875	-66.891464
7342.773438	-66.499748
7343.750000	-66.639671
7344.726562	-67.264351
7345.703125	-67.501221
7346.679688	-66.587761
7347.656250	-66.656830
7348.632812	-67.961746
7349.609375	-68.790672
7350.585938	-65.851944
7351.562500	-67.221657
7352.539062	-66.793739
7353.515625	-68.144806
7354.492188	-67.438637
7355.468750	-66.897560
7356.445312	-66.545799
7357.421875	-65.556259
7358.398438	-66.449692
7359.375000	-67.584183
7360.351562	-68.007545
7361.328125	-68.631500
7362.304688	-66.528069
7363.281250	-67.326286
7364.257812	-68.352097
7365.234375	-68.433090
7366.210938	-66.759659
7367.187500	-69.012177
7368.164062	-67.170906
7369.140625	-67.899048
7370.117188	-67.009079
7371.093750	-67.260345
7372.070312	-67.053879
7373.046875	-66.990799
7374.023438	-68.928452
7375.000000	-67.621254
7375.976562	-67.924416
7376.953125	-67.047050
7377.929688	-66.577568
7378.906250	-68.302399
7379.882812	-67.662010
7380.859375	-67.398796
7381.835938	-68.475151
7382.812500	-67.988632
7383.789062	-66.937698
7384.765625	-68.963509
7385.742188	-66.630737
7386.718750	-67.597054
7387.695312	-69.118393
7388.671875	-67.511452
7389.648438	-68.296242
7390.625000	-68.426491
7391.601562	-67.714409
7392.578125	-68.069984
7393.554688	-68.357948
7394.531250	-67.887596
7395.507812	-67.505707
7396.484375	-69.639694
7397.460938	-65.427162
7398.437500	-66.909431
7399.414062	-66.777939
7400.390625	-67.276024
7401.367188	-67.467888
7402.343750	-68.021355
7403.320312	-68.548538
7404.296875	-68.792786
7405.273438	-66.818871
7406.250000	-67.775345
7407.226562	-68.903030
7408.203125	-69.064766
7409.179688	-68.944954
7410.156250	-68.473175
7411.132812	-68.845139
7412.109375	-67.289314
7413.085938	-68.008965
7414.062500	-67.066475
7415.039062	-67.396507
7416.015625	-66.950508
7416.992188	-68.838959
7417.968750	-68.821129
7418.945312	-69.359459
7419.921875	-68.364487
7420.898438	-68.332108
7421.875000	-68.826057
7422.851562	-70.628281
7423.828125	-67.992538
7424.804688	-69.221878
7425.781250	-68.486839
7426.757812	-67.691132
7427.734375	-68.049034
7428.710938	-68.122719
7429.687500	-68.552864
7430.664062	-68.169907
7431.640625	-68.104973
7432.617188	-67.622093
7433.593750	-70.435211
7434.570312	-66.111465
7435.546875	-68.713150
7436.523438	-69.728096
7437.500000	-68.471428
7438.476562	-69.161545
7439.453125	-68.618454
7440.429688	-68.309395
7441.406250	-69.990952
7442.382812	-68.623962
7443.359375	-69.239899
7444.335938	-67.191963
7445.312500	-69.087021
7446.289062	-69.031013
7447.265625	-70.178947
7448.242188	-68.882080
7449.218750	-69.056931
7450.195312	-68.311714
7451.171875	-68.655586
7452.148438	-68.268776
7453.125000	-70.749771
7454.101562	-69.018967
7455.078125	-69.127716
7456.054688	-68.202042
7457.031250	-68.023605
7458.007812	-67.558815
7458.984375	-68.896645
7459.960938	-69.045807
7460.937500	-68.931511
7461.914062	-69.863556
7462.890625	-69.369545
7463.867188	-67.882744
7464.843750	-68.271690
7465.820312	-70.314789
7466.796875	-70.581055
7467.773438	-68.728767
7468.750000	-67.929474
7469.726562	-68.730949
7470.703125	-69.858864
7471.679688	-70.782967
7472.656250	-69.045326
7473.632812	-69.252411
7474.609375	-69.455597
7475.585938	-68.408318
7476.562500	-68.935951
7477.539062	-68.430466
7478.515625	-69.233200
7479.492188	-69.583527
7480.468750	-68.808548
7481.445312	-68.735962
7482.421875	-69.586769
7483.398438	-69.858673
7484.375000	-69.235748
7485.351562	-70.290260
7486.328125	-69.451950
7487.304688	-70.622490
7488.281250	-69.757370
7489.257812	-68.066681
7490.234375	-69.144508
7491.210938	-68.975174
7492.187500	-68.843521
7493.164062	-69.558960
7494.140625	-69.058853
7495.117188	-69.019913
7496.093750	-68.373810
7497.070312	-68.311508
7498.046875	-69.752357
7499.023438	-69.807991
7500.000000	-69.944725
7500.976562	-69.684006
7501.953125	-70.768784
7502.929688	-70.249069
7503.906250	-70.760574
7504.882812	-71.024895
7505.859375	-69.519218
7506.835938	-70.209503
7507.812500	-71.949768
7508.789062	-70.621925
7509.765625	-69.686043
7510.742188	-69.683823
7511.718750	-70.223602
7512.695312	-70.171989
7513.671875	-69.273849
7514.648438	-69.763062
7515.625000	-69.512833
7516.601562	-68.587479
7517.578125	-69.699417
7518.554688	-67.963097
7519.531250	-70.932861
7520.507812	-70.454597
7521.484375	-69.658722
7522.460938	-68.733177
7523.437500	-70.048111
7524.414062	-70.702293
7525.390625	-71.304733
7526.367188	-70.200516
7527.343750	-68.504272
7528.320312	-67.671974
7529.296875	-69.718987
7530.273438	-69.792236
7531.250000	-70.737762
7532.226562	-71.239288
7533.203125	-69.224655
7534.179688	-69.134491
7535.156250	-69.009956
7536.132812	-69.399879
7537.109375	-68.535294
7538.085938	-69.539841
7539.062500	-69.058517
7540.039062	-68.521736
7541.015625	-69.306404
7541.992188	-68.940552
7542.968750	-69.836868
7543.945312	-70.425606
7544.921875	-69.544846
7545.898438	-69.852303
7546.875000	-67.963158
7547.851562	-69.939026
7548.828125	-69.848274
7549.804688	-69.944611
7550.781250	-70.471931
7551.757812	-70.266380
7552.734375	-70.717285
7553.710938	-69.221588
7554.687500	-68.511627
7555.664062	-69.485191
7556.640625	-70.436111
7557.617188	-70.876266
7558.593750	-69.287788
7559.570312	-70.633575
7560.546875	-70.786499
7561.523438	-69.861382
7562.500000	-69.689041
7563.476562	-70.519226
7564.453125	-71.263504
7565.429688	-71.090622
7566.406250	-70.475441
7567.382812	-69.523956
7568.359375	-69.387177
7569.335938	-69.705368
7570.312500	-69.555649
7571.289062	-69.494606
7572.265625	-70.383957
7573.242188	-69.817574
7574.218750	-69.733391
7575.195312	-70.105202
7576.171875	-69.866203
7577.148438	-71.180824
7578.125000	-70.987427
7579.101562	-69.795731
7580.078125	-70.401001
7581.054688	-70.055321
7582.031250	-69.833809
7583.007812	-71.710793
7583.984375	-69.584999
7584.960938	-70.082191
7585.937500	-70.401154
7586.914062	-70.834541
7587.890625	-71.228188
7588.867188	-69.785118
7589.843750	-69.525810
7590.820312	-70.499359
7591.796875	-69.505783
7592.773438	-70.951012
7593.750000	-70.343346
7594.726562	-69.361603
7595.703125	-69.416588
7596.679688	-68.781624
7597.656250	-69.840645
7598.632812	-70.033783
7599.609375	-68.581642
7600.585938	-70.495415
7601.562500	-70.162758
7602.539062	-69.745117
7603.515625	-71.379066
7604.492188	-72.025536
7605.468750	-71.206558
7606.445312	-70.232506
7607.421875	-70.957314
7608.398438	-70.312828
7609.375000	-69.605370
7610.351562	-71.696671
7611.328125	-69.994263
7612.304688	-71.134155
7613.281250	-69.549332
7614.257812	-69.024361
7615.234375	-70.086281
7616.210938	-70.504311
7617.187500	-71.205475
7618.164062	-70.396965
7619.140625	-69.261604
7620.117188	-70.887161
7621.093750	-71.581627
7622.070312	-71.136024
7623.046875	-70.637726
7624.023438	-71.350716
7625.000000	-70.868088
7625.976562	-69.906387
7626.953125	-69.711823
7627.929688	-68.891792
7628.906250	-70.782837
7629.882812	-71.964523
7630.859375	-69.556023
7631.835938	-69.565697
7632.812500	-70.997490
7633.789062	-71.759521
7634.765625	-69.516853
7635.742188	-70.808289
7636.718750	-70.147980
7637.695312	-72.126831
7638.671875	-71.351273
7639.648438	-71.010452
7640.625000	-69.640114
7641.601562	-68.868416
7642.578125	-71.530235
7643.554688	-71.885948
7644.531250	-70.747459
7645.507812	-71.433365
7646.484375	-70.756058
7647.460938	-70.275734
7648.437500	-72.093857
7649.414062	-71.392815
7650.390625	-70.536232
7651.367188	-70.945068
7652.343750	-70.325600
7653.320312	-71.421913
7654.296875	-71.812950
7655.273438	-69.826744
7656.250000	-70.860764
7657.226562	-70.416542
7658.203125	-70.855171
7659.179688	-71.279312
7660.156250	-70.409447
7661.132812	-71.304779
7662.109375	-71.192917
7663.085938	-71.053230
7664.062500	-71.269669
7665.039062	-70.616814
7666.015625	-71.825043
7666.992188	-72.364540
7667.968750	-71.008240
7668.945312	-72.280174
7669.921875	-71.135918
7670.898438	-70.064461
7671.875000	-71.419655
7672.851562	-70.979355
7673.828125	-69.354729
7674.804688	-70.151474
7675.781250	-70.262268
7676.757812	-71.937431
7677.734375	-70.248276
7678.710938	-70.186928
7679.687500	-69.520050
7680.664062	-70.114357
7681.640625	-71.844437
7682.617188	-70.245216
7683.593750	-70.705345
7684.570312	-71.118416
7685.546875	-71.565643
7686.523438	-71.263672
7687.500000	-71.572403
7688.476562	-72.066750
7689.453125	-71.554871
7690.429688	-72.028999
7691.406250	-71.230812
7692.382812	-71.507881
7693.359375	-69.724335
7694.335938	-71.169510
7695.312500	-71.815842
7696.289062	-70.338387
7697.265625	-70.183258
7698.242188	-71.675323
7699.218750	-71.139008
7700.195312	-70.782791
7701.171875	-71.899933
7702.148438	-70.977234
7703.125000	-71.217926
7704.101562	-70.599380
7705.078125	-71.281906
7706.054688	-71.647263
7707.031250	-71.797241
7708.007812	-72.610809
7708.984375	-71.821686
7709.960938	-70.114067
7710.937500	-73.190041
7711.914062	-71.578850
7712.890625	-71.311333
7713.867188	-70.690636
7714.843750	-70.438492
7715.820312	-71.147270
7716.796875	-72.725967
7717.773438	-71.565048
7718.750000	-70.781685
7719.726562	-71.784996
7720.703125	-72.410576
7721.679688	-71.480919
7722.656250	-72.675537
7723.632812	-71.589951
7724.609375	-71.738495
7725.585938	-72.063202
7726.562500	-72.017075
7727.539062	-70.762390
7728.515625	-72.385193
7729.492188	-73.461487
7730.468750	-73.610886
7731.445312	-73.861763
7732.421875	-72.788498
7733.398438	-72.571884
7734.375000	-72.337669
7735.351562	-73.660538
7736.328125	-72.426987
7737.304688	-70.863335
7738.281250	-72.482666
7739.257812	-71.782082
7740.234375	-72.351067
7741.210938	-73.392258
7742.187500	-72.574921
7743.164062	-72.878639
7744.140625	-73.126366
7745.117188	-73.595688
7746.093750	-71.774704
7747.070312	-71.368607
7748.046875	-72.225563
7749.023438	-72.784622
7750.000000	-73.445381
7750.976562	-73.904510
7751.953125	-72.941437
7752.929688	-73.164673
7753.906250	-72.490318
7754.882812	-72.822937
7755.859375	-73.213509
7756.835938	-71.860268
7757.812500	-72.745979
7758.789062	-73.069374
7759.765625	-72.103409
7760.742188	-73.053368
7761.718750	-70.688805
7762.695312	-73.100334
7763.671875	-73.305824
7764.648438	-72.990479
7765.625000	-72.090973
7766.601562	-73.245857
7767.578125	-73.535782
7768.554688	-72.806717
7769.531250	-73.262939
7770.507812	-72.758720
7771.484375	-72.129135
7772.460938	-72.752594
7773.437500	-73.834793
7774.414062	-73.637482
7775.390625	-74.124031
7776.367188	-73.143486
7777.343750	-71.549454
7778.320312	-73.215935
7779.296875	-73.414925
7780.273438	-74.050568
7781.250000	-73.417786
7782.226562	-73.289963
7783.203125	-73.585434
7784.179688	-72.971176
7785.156250	-73.313820
7786.132812	-73.161194
7787.109375	-73.703827
7788.085938	-72.540558
7789.062500	-73.642944
7790.039062	-73.461639
7791.015625	-73.959518
7791.992188	-72.329300
7792.968750	-73.834175
7793.945312	-75.768074
7794.921875	-74.463058
7795.898438	-74.836143
7796.875000	-74.139023
7797.851562	-73.285408
7798.828125	-72.978653
7799.804688	-72.609749
7800.781250	-73.084526
7801.757812	-72.698807
7802.734375	-71.939011
7803.710938	-74.312828
7804.687500	-74.821182
7805.664062	-74.226929
7806.640625	-72.874535
7807.617188	-73.812180
7808.593750	-74.313225
7809.570312	-73.746971
7810.546875	-72.845612
7811.523438	-74.746475
7812.500000	-75.007431
7813.476562	-74.070747
7814.453125	-73.436859
7815.429688	-72.263199
7816.406250	-72.696754
7817.382812	-73.472145
7818.359375	-72.753922
7819.335938	-73.991165
7820.312500	-74.811188
7821.289062	-73.532700
7822.265625	-74.188828
7823.242188	-73.317184
7824.218750	-74.328827
7825.195312	-75.001686
7826.171875	-74.851959
7827.148438	-73.750015
7828.125000	-74.319672
7829.101562	-73.991600
7830.078125	-75.082405
7831.054688	-75.058922
7832.031250	-74.821953
7833.007812	-74.547707
7833.984375	-74.086212
7834.960938	-75.373070
7835.937500	-74.345551
7836.914062	-73.922661
7837.890625	-73.315796
7838.867188	-73.049774
7839.843750	-73.551491
7840.820312	-75.036629
7841.796875	-74.692932
7842.773438	-75.020828
7843.750000	-74.560852
7844.726562	-74.017235
7845.703125	-74.159332
7846.679688	-75.485252
7847.656250	-73.758522
7848.632812	-73.934250
7849.609375	-74.933319
7850.585938	-74.331367
7851.562500	-74.442902
7852.539062	-74.178299
7853.515625	-74.433083
7854.492188	-74.078079
7855.468750	-74.681419
7856.445312	-76.256187
7857.421875	-75.539978
7858.398438	-74.053078
7859.375000	-75.239105
7860.351562	-75.800583
7861.328125	-74.807175
7862.304688	-74.436714
7863.281250	-75.543518
7864.257812	-75.926369
7865.234375	-76.128738
7866.210938	-76.165443
7867.187500	-75.272232
7868.164062	-75.626602
7869.140625	-75.269455
7870.117188	-75.060005
7871.093750	-74.948105
7872.070312	-74.725388
7873.046875	-74.479401
7874.023438	-75.447433
7875.000000	-75.734596
7875.976562	-74.785149
7876.953125	-76.417160
7877.929688	-75.369606
7878.906250	-75.636299
7879.882812	-76.839920
7880.859375	-75.492775
7881.835938	-74.551880
7882.812500	-74.653442
7883.789062	-74.996666
7884.765625	-75.924461
7885.742188	-75.497902
7886.718750	-77.304527
7887.695312	-76.311920
7888.671875	-74.890533
7889.648438	-75.607925
7890.625000	-75.432106
7891.601562	-75.662445
7892.578125	-75.401512
7893.554688	-75.991684
7894.531250	-75.807205
7895.507812	-75.159630
7896.484375	-75.419266
7897.460938	-75.324699
7898.437500	-76.257828
7899.414062	-77.251030
7900.390625	-76.319611
7901.367188	-77.485283
7902.343750	-74.941254
7903.320312	-77.637184
7904.296875	-76.332756
7905.273438	-76.127357
7906.250000	-77.111694
7907.226562	-75.573799
7908.203125	-76.330582
7909.179688	-74.472214
7910.156250	-74.917732
7911.132812	-75.016853
7912.109375	-75.232201
7913.085938	-76.556755
7914.062500	-75.465233
7915.039062	-76.920593
7916.015625	-75.592888
7916.992188	-75.255562
7917.968750	-76.012222
7918.945312	-75.546066
7919.921875	-75.584160
7920.898438	-75.816238
7921.875000	-76.466393
7922.851562	-76.926262
7923.828125	-76.400009
7924.804688	-77.509239
7925.781250	-76.096924
7926.757812	-75.578491
7927.734375	-76.534485
7928.710938	-75.875633
7929.687500	-75.619232
7930.664062	-75.908005
7931.640625	-75.973259
7932.617188	-76.188377
7933.593750	-75.977325
7934.570312	-77.047150
7935.546875	-75.823959
7936.523438	-75.960602
7937.500000	-76.507095
7938.476562	-75.474876
7939.453125	-76.282646
7940.429688	-75.394814
7941.406250	-76.602974
7942.382812	-76.194717
7943.359375	-76.458832
7944.335938	-77.777863
7945.312500	-77.015648
7946.289062	-74.946228
7947.265625	-76.069313
7948.242188	-75.985283
7949.218750	-76.462975
7950.195312	-75.995529
7951.171875	-77.572128
7952.148438	-76.383934
7953.125000	-76.930550
7954.101562	-77.128922
7955.078125	-77.925758
7956.054688	-78.437477
7957.031250	-76.812996
7958.007812	-76.420807
7958.984375	-75.339874
7959.960938	-76.754379
7960.937500	-77.499374
7961.914062	-76.193909
7962.890625	-76.698959
7963.867188	-75.555817
7964.843750	-77.277725
7965.820312	-76.347816
7966.796875	-75.764778
7967.773438	-78.080849
7968.750000	-76.800209
7969.726562	-77.270164
7970.703125	-77.114449
7971.679688	-77.766006
7972.656250	-76.296883
7973.632812	-76.382217
7974.609375	-78.649376
7975.585938	-78.306839
7976.562500	-76.817596
7977.539062	-76.955078
7978.515625	-76.149498
7979.492188	-77.129852
7980.468750	-76.110115
7981.445312	-76.100365
7982.421875	-76.150681
7983.398438	-77.254692
7984.375000	-77.054932
7985.351562	-75.374565
7986.328125	-76.764137
7987.304688	-77.350197
7988.281250	-77.868370
7989.257812	-75.997459
7990.234375	-75.952934
7991.210938	-75.649666
7992.187500	-75.278557
7993.164062	-77.027534
7994.140625	-77.945091
7995.117188	-77.738754
7996.093750	-76.934593
7997.070312	-76.972687
7998.046875	-76.663750
7999.023438	-76.946060
