Frequency (Hz)	Level (dB)
0.976562	-70.244057
1.953125	-69.464630
2.929688	-70.963860
3.906250	-71.547020
4.882812	-71.405762
5.859375	-72.160973
6.835938	-71.972328
7.812500	-70.767220
8.789062	-70.271751
9.765625	-68.583427
10.742188	-66.835495
11.718750	-68.523888
12.695312	-67.038811
13.671875	-67.838570
14.648438	-66.600853
15.625000	-66.506088
16.601562	-65.311691
17.578125	-64.371338
18.554688	-64.265106
19.531250	-61.129181
20.507812	-59.914055
21.484375	-53.964043
22.460938	-48.671387
23.437500	-48.209610
24.414062	-52.333263
25.390625	-54.586239
26.367188	-57.746487
27.343750	-61.872898
28.320312	-62.988110
29.296875	-63.711910
30.273438	-63.945694
31.250000	-64.391472
32.226562	-64.457375
33.203125	-65.079361
34.179688	-65.993843
35.156250	-66.452019
36.132812	-64.950348
37.109375	-64.493271
38.085938	-64.377403
39.062500	-64.684044
40.039062	-64.086678
41.015625	-63.590767
41.992188	-62.653950
42.968750	-59.912392
43.945312	-58.987854
44.921875	-56.316765
45.898438	-54.968128
46.875000	-53.141037
47.851562	-54.292892
48.828125	-54.465046
49.804688	-57.415821
50.781250	-59.972267
51.757812	-61.634628
52.734375	-62.172153
53.710938	-63.419693
54.687500	-63.147251
55.664062	-63.456230
56.640625	-65.114700
57.617188	-65.335732
58.593750	-64.590820
59.570312	-63.323792
60.546875	-65.082359
61.523438	-63.397202
62.500000	-63.751625
63.476562	-63.658981
64.453125	-61.706924
65.429688	-59.982883
66.406250	-60.488224
67.382812	-58.788422
68.359375	-57.739292
69.335938	-58.397236
70.312500	-57.558933
71.289062	-58.972046
72.265625	-57.311260
73.242188	-56.319557
74.218750	-59.097347
75.195312	-59.461330
76.171875	-62.763927
77.148438	-62.333694
78.125000	-61.713688
79.101562	-64.626755
80.078125	-62.970287
81.054688	-62.544384
82.031250	-64.044838
83.007812	-66.104942
83.984375	-63.105217
84.960938	-64.608124
85.937500	-62.583942
86.914062	-63.424175
87.890625	-63.171772
88.867188	-61.846809
89.843750	-61.194366
90.820312	-61.364742
91.796875	-60.952557
92.773438	-60.407715
93.750000	-60.480766
94.726562	-58.672806
95.703125	-58.696060
96.679688	-58.844868
97.656250	-60.997364
98.632812	-60.332336
99.609375	-59.379795
100.585938	-59.558990
101.562500	-62.648750
102.539062	-61.718422
103.515625	-63.134148
104.492188	-62.400955
105.468750	-63.741085
106.445312	-63.057873
107.421875	-63.469528
108.398438	-61.347481
109.375000	-60.625645
110.351562	-62.288521
111.328125	-61.785568
112.304688	-61.428795
113.281250	-59.188580
114.257812	-59.869961
115.234375	-59.304520
116.210938	-61.367790
117.187500	-61.623196
118.164062	-59.896561
119.140625	-59.614532
120.117188	-59.855721
121.093750	-59.683113
122.070312	-59.790726
123.046875	-60.142979
124.023438	-61.136395
125.000000	-61.814594
125.976562	-61.906021
126.953125	-62.020004
127.929688	-60.833290
128.906250	-63.339245
129.882812	-63.234253
130.859375	-63.511200
131.835938	-63.157616
132.812500	-61.514351
133.789062	-63.007660
134.765625	-60.825191
135.742188	-61.130478
136.718750	-61.382622
137.695312	-61.674110
138.671875	-61.447411
139.648438	-62.305523
140.625000	-61.450710
141.601562	-62.644051
142.578125	-61.312096
143.554688	-60.278954
144.531250	-60.071304
145.507812	-60.356655
146.484375	-60.306282
147.460938	-61.039631
148.437500	-60.686581
149.414062	-61.162613
150.390625	-60.510708
151.367188	-60.453339
152.343750	-60.791321
153.320312	-60.032997
154.296875	-59.950710
155.273438	-61.652988
156.250000	-60.936447
157.226562	-60.840309
158.203125	-62.375061
159.179688	-61.517811
160.156250	-62.477036
161.132812	-60.656445
162.109375	-61.760372
163.085938	-61.948662
164.062500	-60.102772
165.039062	-61.338387
166.015625	-61.779343
166.992188	-60.988369
167.968750	-61.656830
168.945312	-62.070000
169.921875	-61.444767
170.898438	-61.550198
171.875000	-61.418983
172.851562	-61.025124
173.828125	-61.118603
174.804688	-59.387321
175.781250	-58.144993
176.757812	-58.712975
177.734375	-59.836330
178.710938	-59.420456
179.687500	-58.981812
180.664062	-61.197479
181.640625	-62.847401
182.617188	-62.887955
183.593750	-63.497993
184.570312	-61.628994
185.546875	-63.494221
186.523438	-62.201309
187.500000	-62.134190
188.476562	-63.629166
189.453125	-61.602257
190.429688	-60.851185
191.406250	-60.012772
192.382812	-61.412254
193.359375	-61.505859
194.335938	-60.202229
195.312500	-60.941116
196.289062	-60.649647
197.265625	-61.375317
198.242188	-61.798382
199.218750	-60.051338
200.195312	-58.948971
201.171875	-58.805756
202.148438	-59.499447
203.125000	-58.742867
204.101562	-58.877151
205.078125	-59.758896
206.054688	-61.627602
207.031250	-62.390965
208.007812	-61.990238
208.984375	-61.937370
209.960938	-59.927269
210.937500	-61.203442
211.914062	-62.122452
212.890625	-61.936295
213.867188	-58.820538
214.843750	-57.128113
215.820312	-61.896648
216.796875	-61.135349
217.773438	-62.434185
218.750000	-62.063187
219.726562	-60.589352
220.703125	-61.525928
221.679688	-61.697697
222.656250	-61.825939
223.632812	-59.798267
224.609375	-61.357441
225.585938	-60.100136
226.562500	-59.887333
227.539062	-59.726334
228.515625	-60.413155
229.492188	-59.216362
230.468750	-58.574932
231.445312	-60.709248
232.421875	-62.228661
233.398438	-61.946980
234.375000	-61.776859
235.351562	-61.428162
236.328125	-60.340290
237.304688	-60.994686
238.281250	-61.208576
239.257812	-62.179375
240.234375	-62.075443
241.210938	-61.922485
242.187500	-61.925289
243.164062	-62.509270
244.140625	-61.603924
245.117188	-62.005299
246.093750	-61.710705
247.070312	-59.890743
248.046875	-59.472206
249.023438	-58.944618
250.000000	-58.501873
250.976562	-60.479923
251.953125	-61.204594
252.929688	-61.250294
253.906250	-58.700993
254.882812	-59.835617
255.859375	-59.130974
256.835938	-59.626408
257.812500	-62.757198
258.789062	-61.355999
259.765625	-62.639843
260.742188	-62.490356
261.718750	-62.121208
262.695312	-62.015606
263.671875	-63.300037
264.648438	-62.708401
265.625000	-61.609261
266.601562	-61.934643
267.578125	-63.420120
268.554688	-63.464294
269.531250	-61.126102
270.507812	-61.040157
271.484375	-61.139446
272.460938	-62.223000
273.437500	-61.982029
274.414062	-59.771702
275.390625	-58.805515
276.367188	-59.973450
277.343750	-60.822937
278.320312	-61.052967
279.296875	-61.518681
280.273438	-61.812550
281.250000	-60.887432
282.226562	-59.942059
283.203125	-61.173077
284.179688	-60.307159
285.156250	-61.225605
286.132812	-63.043842
287.109375	-62.967751
288.085938	-62.421028
289.062500	-61.861095
290.039062	-62.280033
291.015625	-62.351353
291.992188	-60.586796
292.968750	-61.094227
293.945312	-62.777195
294.921875	-60.109566
295.898438	-60.028393
296.875000	-60.228668
297.851562	-61.066284
298.828125	-61.443707
299.804688	-60.123356
300.781250	-59.789436
301.757812	-59.528263
302.734375	-60.961884
303.710938	-61.574577
304.687500	-61.385498
305.664062	-60.342270
306.640625	-59.159595
307.617188	-58.814632
308.593750	-58.959251
309.570312	-61.012257
310.546875	-61.505714
311.523438	-62.035900
312.500000	-63.272781
313.476562	-62.469006
314.453125	-61.069351
315.429688	-61.485268
316.406250	-61.518757
317.382812	-61.660793
318.359375	-61.518291
319.335938	-61.617954
320.312500	-62.005421
321.289062	-60.863449
322.265625	-61.690319
323.242188	-59.746811
324.218750	-59.976234
325.195312	-60.356140
326.171875	-60.266953
327.148438	-61.570889
328.125000	-61.265205
329.101562	-60.647453
330.078125	-61.042271
331.054688	-60.840981
332.031250	-61.606472
333.007812	-61.266445
333.984375	-61.445431
334.960938	-61.500759
335.937500	-62.212666
336.914062	-61.774624
337.890625	-61.177002
338.867188	-61.790627
339.843750	-61.314781
340.820312	-61.052536
341.796875	-60.103947
342.773438	-59.651844
343.750000	-59.957561
344.726562	-61.469563
345.703125	-59.470955
346.679688	-60.893257
347.656250	-60.488174
348.632812	-61.448811
349.609375	-61.059555
350.585938	-60.672844
351.562500	-59.972828
352.539062	-61.033909
353.515625	-60.381893
354.492188	-62.208557
355.468750	-61.345676
356.445312	-60.337379
357.421875	-61.789040
358.398438	-61.020603
359.375000	-61.850857
360.351562	-60.900982
361.328125	-60.429840
362.304688	-62.404854
363.281250	-60.077602
364.257812	-61.999416
365.234375	-61.215294
366.210938	-63.178741
367.187500	-61.027542
368.164062	-60.873531
369.140625	-61.899349
370.117188	-61.599766
371.093750	-60.241432
372.070312	-60.854012
373.046875	-61.520981
374.023438	-60.986069
375.000000	-60.134243
375.976562	-61.053555
376.953125	-61.097393
377.929688	-59.861885
378.906250	-61.166870
379.882812	-62.214535
380.859375	-60.647438
381.835938	-60.842609
382.812500	-61.221855
383.789062	-59.959476
384.765625	-60.978428
385.742188	-61.640564
386.718750	-63.483681
387.695312	-62.026287
388.671875	-62.670288
389.648438	-61.176819
390.625000	-62.290092
391.601562	-61.298512
392.578125	-61.430264
393.554688	-60.063526
394.531250	-59.930222
395.507812	-61.906864
396.484375	-61.488987
397.460938	-60.289917
398.437500	-60.944054
399.414062	-62.577770
400.390625	-61.418636
401.367188	-61.663490
402.343750	-60.920292
403.320312	-59.850590
404.296875	-60.919991
405.273438	-60.885647
406.250000	-61.146301
407.226562	-61.922970
408.203125	-61.521915
409.179688	-61.625984
410.156250	-62.730621
411.132812	-63.195774
412.109375	-61.540279
413.085938	-61.487019
414.062500	-61.501530
415.039062	-61.168850
416.015625	-60.199543
416.992188	-60.265224
417.968750	-62.008778
418.945312	-61.196777
419.921875	-60.653885
420.898438	-59.923943
421.875000	-59.001270
422.851562	-61.055119
423.828125	-60.859631
424.804688	-61.338280
425.781250	-59.825920
426.757812	-60.288292
427.734375	-60.110714
428.710938	-60.828564
429.687500	-61.644897
430.664062	-61.613934
431.640625	-61.264648
432.617188	-62.774128
433.593750	-62.162895
434.570312	-61.796871
435.546875	-61.996304
436.523438	-61.706104
437.500000	-62.151150
438.476562	-60.461491
439.453125	-61.897221
440.429688	-60.610153
441.406250	-59.714851
442.382812	-60.346260
443.359375	-59.596668
444.335938	-59.123482
445.312500	-59.899338
446.289062	-59.817833
447.265625	-59.712887
448.242188	-59.911144
449.218750	-61.152672
450.195312	-60.618053
451.171875	-61.033211
452.148438	-61.790073
453.125000	-61.981247
454.101562	-62.443222
455.078125	-63.530613
456.054688	-63.474888
457.031250	-62.117161
458.007812	-62.109142
458.984375	-60.573631
459.960938	-61.260525
460.937500	-61.064922
461.914062	-61.109112
462.890625	-61.849125
463.867188	-61.174156
464.843750	-61.460487
465.820312	-61.987400
466.796875	-61.755291
467.773438	-61.666431
468.750000	-60.685490
469.726562	-58.886089
470.703125	-58.026398
471.679688	-58.258862
472.656250	-59.081146
473.632812	-60.846485
474.609375	-60.036377
475.585938	-61.046959
476.562500	-61.156395
477.539062	-61.286644
478.515625	-62.113422
479.492188	-62.886181
480.468750	-61.515297
481.445312	-61.046043
482.421875	-61.099049
483.398438	-60.554783
484.375000	-61.266773
485.351562	-62.272171
486.328125	-60.458485
487.304688	-60.361187
488.281250	-60.616787
489.257812	-60.912174
490.234375	-60.463871
491.210938	-60.884541
492.187500	-60.293110
493.164062	-58.542736
494.140625	-58.939808
495.117188	-62.076229
496.093750	-58.698269
497.070312	-58.795895
498.046875	-61.851593
499.023438	-62.314411
500.000000	-62.783440
500.976562	-62.315208
501.953125	-62.676640
502.929688	-61.762245
503.906250	-61.885185
504.882812	-62.506844
505.859375	-62.091583
506.835938	-60.713329
507.812500	-61.544750
508.789062	-62.378170
509.765625	-61.326145
510.742188	-62.029888
511.718750	-60.572029
512.695312	-60.332233
513.671875	-60.448391
514.648438	-61.060822
515.625000	-60.707130
516.601562	-59.549122
517.578125	-60.997829
518.554688	-61.460045
519.531250	-60.802784
520.507812	-61.450703
521.484375	-60.872219
522.460938	-61.394543
523.437500	-60.206112
524.414062	-60.803722
525.390625	-60.543156
526.367188	-60.758938
527.343750	-60.146801
528.320312	-61.685753
529.296875	-60.690598
530.273438	-61.414417
531.250000	-62.409904
532.226562	-62.245014
533.203125	-61.444374
534.179688	-61.960598
535.156250	-61.720772
536.132812	-61.310711
537.109375	-61.197407
538.085938	-61.265602
539.062500	-62.030128
540.039062	-58.681808
541.015625	-58.835255
541.992188	-58.547020
542.968750	-59.651844
543.945312	-59.947151
544.921875	-60.570614
545.898438	-61.186790
546.875000	-63.260178
547.851562	-61.735893
548.828125	-61.212704
549.804688	-61.270355
550.781250	-60.697262
551.757812	-62.162350
552.734375	-61.355492
553.710938	-60.976135
554.687500	-61.972252
555.664062	-61.173618
556.640625	-63.094196
557.617188	-61.971313
558.593750	-61.495590
559.570312	-62.313320
560.546875	-63.008305
561.523438	-60.812817
562.500000	-60.648338
563.476562	-59.901791
564.453125	-60.229111
565.429688	-59.094753
566.406250	-61.684975
567.382812	-62.824860
568.359375	-61.039864
569.335938	-62.564373
570.312500	-60.931984
571.289062	-61.991249
572.265625	-62.114136
573.242188	-61.935841
574.218750	-61.847515
575.195312	-62.080406
576.171875	-61.572029
577.148438	-62.467037
578.125000	-60.717541
579.101562	-61.241112
580.078125	-62.722698
581.054688	-61.818241
582.031250	-61.093929
583.007812	-61.791531
583.984375	-61.386715
584.960938	-63.532276
585.937500	-60.880211
586.914062	-61.230816
587.890625	-60.849056
588.867188	-60.778069
589.843750	-60.662766
590.820312	-60.509747
591.796875	-60.183002
592.773438	-60.397106
593.750000	-60.149124
594.726562	-62.471535
595.703125	-60.409267
596.679688	-62.305817
597.656250	-60.476421
598.632812	-60.981422
599.609375	-61.423985
600.585938	-60.665531
601.562500	-61.224693
602.539062	-60.944225
603.515625	-61.163383
604.492188	-61.845356
605.468750	-61.311378
606.445312	-62.752491
607.421875	-61.333206
608.398438	-61.016693
609.375000	-60.929798
610.351562	-60.861156
611.328125	-60.786568
612.304688	-59.543060
613.281250	-59.963593
614.257812	-61.807491
615.234375	-60.792133
616.210938	-60.164696
617.187500	-62.322212
618.164062	-61.293430
619.140625	-61.822159
620.117188	-61.397243
621.093750	-61.640427
622.070312	-62.399044
623.046875	-62.119884
624.023438	-61.832745
625.000000	-61.817226
625.976562	-61.621582
626.953125	-61.165382
627.929688	-61.175262
628.906250	-61.836075
629.882812	-62.206810
630.859375	-61.579170
631.835938	-61.984165
632.812500	-61.231617
633.789062	-61.251640
634.765625	-60.684780
635.742188	-59.924919
636.718750	-61.075207
637.695312	-60.921555
638.671875	-61.833519
639.648438	-60.200615
640.625000	-60.038837
641.601562	-61.063576
642.578125	-61.038231
643.554688	-60.647053
644.531250	-60.954910
645.507812	-61.112030
646.484375	-61.236816
647.460938	-62.305267
648.437500	-62.225643
649.414062	-61.030357
650.390625	-61.465534
651.367188	-61.829304
652.343750	-63.000160
653.320312	-62.005779
654.296875	-62.136459
655.273438	-61.864994
656.250000	-61.788380
657.226562	-62.117016
658.203125	-59.885220
659.179688	-61.133266
660.156250	-60.407711
661.132812	-61.450092
662.109375	-59.444008
663.085938	-59.906357
664.062500	-60.033115
665.039062	-60.572704
666.015625	-61.699440
666.992188	-60.351025
667.968750	-61.314873
668.945312	-62.356617
669.921875	-61.195747
670.898438	-61.864216
671.875000	-62.779778
672.851562	-62.249287
673.828125	-62.665981
674.804688	-61.606613
675.781250	-61.564495
676.757812	-61.411858
677.734375	-60.499264
678.710938	-61.187672
679.687500	-61.055237
680.664062	-60.811333
681.640625	-60.071911
682.617188	-59.870445
683.593750	-60.431973
684.570312	-59.911930
685.546875	-61.317291
686.523438	-60.342739
687.500000	-60.896313
688.476562	-60.146286
689.453125	-61.196903
690.429688	-59.644497
691.406250	-60.885471
692.382812	-62.399525
693.359375	-61.402092
694.335938	-61.098995
695.312500	-60.728786
696.289062	-60.428013
697.265625	-61.493507
698.242188	-61.609478
699.218750	-61.806145
700.195312	-61.617538
701.171875	-62.088448
702.148438	-61.889175
703.125000	-60.434040
704.101562	-59.611839
705.078125	-60.766418
706.054688	-60.367241
707.031250	-61.649479
708.007812	-60.197376
708.984375	-59.913254
709.960938	-60.406651
710.937500	-62.520702
711.914062	-60.841282
712.890625	-61.680988
713.867188	-59.750755
714.843750	-62.258812
715.820312	-60.847694
716.796875	-61.330437
717.773438	-63.339542
718.750000	-61.618519
719.726562	-60.010094
720.703125	-61.656551
721.679688	-62.698555
722.656250	-61.374222
723.632812	-60.822338
724.609375	-61.577339
725.585938	-61.750813
726.562500	-60.809719
727.539062	-61.364208
728.515625	-60.802471
729.492188	-61.336430
730.468750	-60.750797
731.445312	-62.058056
732.421875	-61.524853
733.398438	-60.424816
734.375000	-61.325485
735.351562	-60.266998
736.328125	-60.846260
737.304688	-61.040665
738.281250	-60.506306
739.257812	-59.836990
740.234375	-60.553333
741.210938	-60.077892
742.187500	-61.077080
743.164062	-60.213367
744.140625	-61.981358
745.117188	-61.903381
746.093750	-61.993084
747.070312	-62.078102
748.046875	-61.368744
749.023438	-61.295963
750.000000	-59.838696
750.976562	-59.697918
751.953125	-59.621696
752.929688	-61.149818
753.906250	-61.539837
754.882812	-60.192661
755.859375	-59.079628
756.835938	-60.639309
757.812500	-59.677105
758.789062	-61.855221
759.765625	-61.168957
760.742188	-61.222816
761.718750	-60.044285
762.695312	-60.886463
763.671875	-59.999729
764.648438	-61.061729
765.625000	-60.108704
766.601562	-59.501705
767.578125	-60.154976
768.554688	-58.940201
769.531250	-59.069000
770.507812	-60.145794
771.484375	-58.658813
772.460938	-61.379662
773.437500	-59.517235
774.414062	-60.155895
775.390625	-60.010647
776.367188	-59.688374
777.343750	-59.575378
778.320312	-60.257587
779.296875	-59.519447
780.273438	-60.493301
781.250000	-59.578777
782.226562	-60.578949
783.203125	-61.065914
784.179688	-60.629482
785.156250	-59.712654
786.132812	-59.813446
787.109375	-60.544476
788.085938	-60.861034
789.062500	-59.937023
790.039062	-61.374680
791.015625	-61.152710
791.992188	-59.901920
792.968750	-60.886364
793.945312	-60.326702
794.921875	-60.189831
795.898438	-59.406368
796.875000	-59.484562
797.851562	-59.394947
798.828125	-60.597973
799.804688	-59.262234
800.781250	-58.515659
801.757812	-58.650589
802.734375	-59.137440
803.710938	-59.722706
804.687500	-59.827847
805.664062	-59.931168
806.640625	-59.801960
807.617188	-59.544281
808.593750	-61.304035
809.570312	-60.261105
810.546875	-59.960529
811.523438	-59.133705
812.500000	-59.740128
813.476562	-58.434063
814.453125	-58.224831
815.429688	-57.779434
816.406250	-59.137012
817.382812	-61.034740
818.359375	-61.605896
819.335938	-60.685291
820.312500	-60.126999
821.289062	-60.201469
822.265625	-61.139244
823.242188	-59.360401
824.218750	-59.591660
825.195312	-60.239014
826.171875	-59.940521
827.148438	-60.612167
828.125000	-60.497852
829.101562	-60.414059
830.078125	-59.721176
831.054688	-60.091476
832.031250	-60.104469
833.007812	-59.318279
833.984375	-60.369713
834.960938	-59.008732
835.937500	-59.067905
836.914062	-58.688625
837.890625	-59.585125
838.867188	-61.417336
839.843750	-59.632492
840.820312	-59.863247
841.796875	-58.859970
842.773438	-58.843765
843.750000	-58.897083
844.726562	-59.534004
845.703125	-58.654274
846.679688	-59.993355
847.656250	-58.151146
848.632812	-59.030621
849.609375	-59.265690
850.585938	-60.852886
851.562500	-60.836040
852.539062	-60.657047
853.515625	-61.123501
854.492188	-60.629059
855.468750	-60.854473
856.445312	-59.941742
857.421875	-60.524651
858.398438	-60.480053
859.375000	-59.448189
860.351562	-60.787487
861.328125	-59.894184
862.304688	-58.661953
863.281250	-60.866467
864.257812	-60.571808
865.234375	-61.423660
866.210938	-61.307491
867.187500	-61.412411
868.164062	-59.123322
869.140625	-59.665386
870.117188	-59.499130
871.093750	-59.870514
872.070312	-59.264938
873.046875	-58.625031
874.023438	-59.801445
875.000000	-59.437389
875.976562	-60.565086
876.953125	-59.906303
877.929688	-60.443974
878.906250	-60.086571
879.882812	-61.569382
880.859375	-59.889565
881.835938	-60.638775
882.812500	-60.392071
883.789062	-59.739845
884.765625	-61.220665
885.742188	-60.696987
886.718750	-60.097122
887.695312	-61.521832
888.671875	-58.479485
889.648438	-59.997955
890.625000	-59.670708
891.601562	-60.406357
892.578125	-60.092304
893.554688	-61.406380
894.531250	-60.365696
895.507812	-60.444347
896.484375	-61.113911
897.460938	-62.012753
898.437500	-60.858162
899.414062	-61.290089
900.390625	-61.256920
901.367188	-61.148960
902.343750	-60.106167
903.320312	-58.657452
904.296875	-60.536118
905.273438	-59.902527
906.250000	-59.149460
907.226562	-60.198761
908.203125	-59.225437
909.179688	-61.710869
910.156250	-61.033485
911.132812	-61.013844
912.109375	-58.346741
913.085938	-59.117352
914.062500	-59.915016
915.039062	-60.014908
916.015625	-59.685719
916.992188	-61.725163
917.968750	-61.130714
918.945312	-59.415432
919.921875	-58.998737
920.898438	-59.252369
921.875000	-60.815823
922.851562	-59.719738
923.828125	-61.296909
924.804688	-61.103382
925.781250	-59.463753
926.757812	-60.358414
927.734375	-59.707928
928.710938	-58.814350
929.687500	-58.177246
930.664062	-59.072697
931.640625	-59.465054
932.617188	-60.165691
933.593750	-59.319431
934.570312	-59.430515
935.546875	-59.037922
936.523438	-60.177052
937.500000	-60.980503
938.476562	-60.674942
939.453125	-59.333275
940.429688	-60.870487
941.406250	-60.646595
942.382812	-60.780838
943.359375	-59.024376
944.335938	-58.880356
945.312500	-60.158016
946.289062	-58.857594
947.265625	-60.764225
948.242188	-60.907898
949.218750	-60.802185
950.195312	-59.897560
951.171875	-59.687729
952.148438	-60.987064
953.125000	-60.945724
954.101562	-61.951408
955.078125	-59.588814
956.054688	-60.976616
957.031250	-60.524323
958.007812	-59.724117
958.984375	-59.415459
959.960938	-58.635410
960.937500	-58.239304
961.914062	-58.506050
962.890625	-59.320438
963.867188	-60.941929
964.843750	-59.824913
965.820312	-58.644970
966.796875	-59.292130
967.773438	-59.318722
968.750000	-60.418961
969.726562	-60.886005
970.703125	-59.299580
971.679688	-60.625389
972.656250	-61.333809
973.632812	-62.327839
974.609375	-62.490562
975.585938	-61.578373
976.562500	-60.777267
977.539062	-61.621120
978.515625	-62.977608
979.492188	-60.364388
980.468750	-59.616425
981.445312	-59.986279
982.421875	-59.761703
983.398438	-59.666412
984.375000	-58.886074
985.351562	-58.460526
986.328125	-59.189861
987.304688	-60.314819
988.281250	-60.000298
989.257812	-59.342918
990.234375	-59.776833
991.210938	-59.482189
992.187500	-59.765141
993.164062	-59.381142
994.140625	-59.105553
995.117188	-59.394115
996.093750	-59.864315
997.070312	-58.829048
998.046875	-60.533119
999.023438	-61.234932
1000.000000	-60.527393
1000.976562	-60.019474
1001.953125	-59.524414
1002.929688	-59.787781
1003.906250	-60.204563
1004.882812	-59.817459
1005.859375	-59.329823
1006.835938	-60.222912
1007.812500	-59.843987
1008.789062	-59.261292
1009.765625	-60.731640
1010.742188	-59.337452
1011.718750	-59.273117
1012.695312	-60.059975
1013.671875	-58.792278
1014.648438	-59.602474
1015.625000	-59.969719
1016.601562	-59.246521
1017.578125	-60.682098
1018.554688	-60.994446
1019.531250	-59.709732
1020.507812	-61.490276
1021.484375	-60.274178
1022.460938	-60.028358
1023.437500	-61.305092
1024.414062	-59.290249
1025.390625	-60.639118
1026.367188	-61.411568
1027.343750	-61.331657
1028.320312	-60.560547
1029.296875	-60.839569
1030.273438	-60.622822
1031.250000	-60.864799
1032.226562	-61.851521
1033.203125	-60.217903
1034.179688	-60.084221
1035.156250	-58.653122
1036.132812	-57.315536
1037.109375	-58.883453
1038.085938	-58.563339
1039.062500	-59.814869
1040.039062	-58.974331
1041.015625	-59.572659
1041.992188	-60.038811
1042.968750	-59.452480
1043.945312	-59.629608
1044.921875	-60.715809
1045.898438	-60.288700
1046.875000	-59.156681
1047.851562	-60.136749
1048.828125	-60.850163
1049.804688	-60.034012
1050.781250	-61.075382
1051.757812	-59.819237
1052.734375	-59.972805
1053.710938	-59.972588
1054.687500	-60.437202
1055.664062	-58.443516
1056.640625	-59.787369
1057.617188	-59.885937
1058.593750	-60.421154
1059.570312	-60.357075
1060.546875	-59.561539
1061.523438	-59.336376
1062.500000	-59.154305
1063.476562	-57.897732
1064.453125	-58.290146
1065.429688	-58.490425
1066.406250	-57.952625
1067.382812	-60.431782
1068.359375	-60.686020
1069.335938	-61.065701
1070.312500	-60.042828
1071.289062	-60.113430
1072.265625	-61.172054
1073.242188	-61.498466
1074.218750	-60.615559
1075.195312	-60.524612
1076.171875	-60.831837
1077.148438	-59.990776
1078.125000	-60.628124
1079.101562	-60.183140
1080.078125	-60.340061
1081.054688	-60.762539
1082.031250	-59.383476
1083.007812	-60.364414
1083.984375	-59.452053
1084.960938	-58.341640
1085.937500	-58.129364
1086.914062	-57.436329
1087.890625	-58.733414
1088.867188	-60.249699
1089.843750	-59.505970
1090.820312	-59.832390
1091.796875	-59.973404
1092.773438	-61.185314
1093.750000	-61.861111
1094.726562	-61.414059
1095.703125	-59.194069
1096.679688	-59.600235
1097.656250	-61.241692
1098.632812	-60.818249
1099.609375	-60.530121
1100.585938	-60.839993
1101.562500	-59.302238
1102.539062	-60.579700
1103.515625	-58.990082
1104.492188	-59.225830
1105.468750	-58.714020
1106.445312	-58.153301
1107.421875	-59.220280
1108.398438	-59.639114
1109.375000	-59.500347
1110.351562	-59.624420
1111.328125	-58.634113
1112.304688	-59.012909
1113.281250	-58.525021
1114.257812	-59.647835
1115.234375	-59.513752
1116.210938	-61.123360
1117.187500	-60.483482
1118.164062	-59.788567
1119.140625	-59.763222
1120.117188	-59.540489
1121.093750	-59.920746
1122.070312	-60.284245
1123.046875	-59.460007
1124.023438	-60.243244
1125.000000	-59.654083
1125.976562	-60.029022
1126.953125	-59.228630
1127.929688	-60.107086
1128.906250	-58.218891
1129.882812	-58.554848
1130.859375	-59.234024
1131.835938	-58.761772
1132.812500	-58.934978
1133.789062	-58.709316
1134.765625	-58.866879
1135.742188	-57.541523
1136.718750	-59.843151
1137.695312	-59.772728
1138.671875	-60.027287
1139.648438	-59.477211
1140.625000	-59.911613
1141.601562	-59.230091
1142.578125	-60.654430
1143.554688	-60.685036
1144.531250	-60.612869
1145.507812	-59.844219
1146.484375	-59.198437
1147.460938	-58.464962
1148.437500	-58.653858
1149.414062	-59.606056
1150.390625	-58.661942
1151.367188	-59.266933
1152.343750	-59.213509
1153.320312	-58.282238
1154.296875	-57.367348
1155.273438	-57.968796
1156.250000	-59.024376
1157.226562	-58.719616
1158.203125	-58.660870
1159.179688	-59.277832
1160.156250	-60.148655
1161.132812	-60.092854
1162.109375	-58.877392
1163.085938	-59.092297
1164.062500	-59.544552
1165.039062	-59.965355
1166.015625	-58.893944
1166.992188	-59.418667
1167.968750	-59.719955
1168.945312	-58.041508
1169.921875	-58.741039
1170.898438	-59.069859
1171.875000	-59.288792
1172.851562	-59.560486
1173.828125	-58.527328
1174.804688	-58.171558
1175.781250	-57.263226
1176.757812	-57.627518
1177.734375	-57.484901
1178.710938	-58.490665
1179.687500	-57.882378
1180.664062	-56.982082
1181.640625	-57.643234
1182.617188	-56.860184
1183.593750	-58.932003
1184.570312	-58.271767
1185.546875	-57.814075
1186.523438	-58.750954
1187.500000	-59.542484
1188.476562	-57.972290
1189.453125	-58.031982
1190.429688	-58.281021
1191.406250	-57.642139
1192.382812	-58.683746
1193.359375	-57.585644
1194.335938	-56.718880
1195.312500	-57.784397
1196.289062	-58.657310
1197.265625	-58.108589
1198.242188	-56.825680
1199.218750	-58.035152
1200.195312	-56.347015
1201.171875	-57.443172
1202.148438	-57.192696
1203.125000	-57.378155
1204.101562	-56.885319
1205.078125	-57.489548
1206.054688	-57.781330
1207.031250	-58.621853
1208.007812	-57.908009
1208.984375	-58.945274
1209.960938	-57.158073
1210.937500	-57.797443
1211.914062	-58.343678
1212.890625	-57.715199
1213.867188	-55.733559
1214.843750	-55.747646
1215.820312	-57.820206
1216.796875	-57.433872
1217.773438	-58.348415
1218.750000	-57.682766
1219.726562	-57.269688
1220.703125	-56.679611
1221.679688	-57.398693
1222.656250	-57.612743
1223.632812	-56.975910
1224.609375	-57.191174
1225.585938	-58.193184
1226.562500	-57.460976
1227.539062	-57.482941
1228.515625	-54.944237
1229.492188	-56.466145
1230.468750	-55.738972
1231.445312	-56.964832
1232.421875	-57.586693
1233.398438	-57.064888
1234.375000	-56.178684
1235.351562	-57.228043
1236.328125	-55.282593
1237.304688	-56.266045
1238.281250	-56.273281
1239.257812	-56.016827
1240.234375	-55.489479
1241.210938	-56.644417
1242.187500	-57.346626
1243.164062	-57.031441
1244.140625	-56.709236
1245.117188	-56.609550
1246.093750	-56.742493
1247.070312	-56.784210
1248.046875	-57.195465
1249.023438	-58.508144
1250.000000	-56.613209
1250.976562	-56.240692
1251.953125	-56.025009
1252.929688	-57.497662
1253.906250	-54.380413
1254.882812	-57.064236
1255.859375	-57.009270
1256.835938	-55.719746
1257.812500	-55.204472
1258.789062	-55.995113
1259.765625	-57.814159
1260.742188	-56.793343
1261.718750	-56.503056
1262.695312	-55.926403
1263.671875	-56.346420
1264.648438	-56.294800
1265.625000	-56.438999
1266.601562	-56.136749
1267.578125	-56.277599
1268.554688	-56.548573
1269.531250	-55.438000
1270.507812	-55.867825
1271.484375	-55.275032
1272.460938	-55.220669
1273.437500	-55.561897
1274.414062	-55.551216
1275.390625	-55.084503
1276.367188	-54.518269
1277.343750	-56.610844
1278.320312	-56.240940
1279.296875	-56.008633
1280.273438	-56.050224
1281.250000	-56.919064
1282.226562	-55.685917
1283.203125	-55.908085
1284.179688	-56.559761
1285.156250	-55.511040
1286.132812	-54.625469
1287.109375	-55.492802
1288.085938	-55.871906
1289.062500	-55.164940
1290.039062	-55.631321
1291.015625	-57.440228
1291.992188	-57.278587
1292.968750	-55.779602
1293.945312	-55.092003
1294.921875	-55.604851
1295.898438	-54.736305
1296.875000	-55.826946
1297.851562	-57.155819
1298.828125	-55.103703
1299.804688	-54.825573
1300.781250	-56.127781
1301.757812	-57.655090
1302.734375	-54.422184
1303.710938	-54.675465
1304.687500	-55.242767
1305.664062	-54.797421
1306.640625	-55.926319
1307.617188	-54.681618
1308.593750	-55.998749
1309.570312	-54.416492
1310.546875	-55.971508
1311.523438	-55.241947
1312.500000	-53.520985
1313.476562	-54.829048
1314.453125	-56.036888
1315.429688	-56.085587
1316.406250	-55.786701
1317.382812	-55.942436
1318.359375	-56.503128
1319.335938	-55.231220
1320.312500	-54.938076
1321.289062	-54.021908
1322.265625	-54.190529
1323.242188	-56.599934
1324.218750	-55.830360
1325.195312	-56.764416
1326.171875	-56.177746
1327.148438	-54.802307
1328.125000	-55.322800
1329.101562	-56.032902
1330.078125	-55.501945
1331.054688	-56.121773
1332.031250	-56.048706
1333.007812	-55.877132
1333.984375	-56.159210
1334.960938	-57.974297
1335.937500	-57.278950
1336.914062	-56.911575
1337.890625	-56.580105
1338.867188	-56.258446
1339.843750	-55.482006
1340.820312	-56.636097
1341.796875	-56.471790
1342.773438	-55.609505
1343.750000	-55.598007
1344.726562	-55.673012
1345.703125	-54.637352
1346.679688	-55.172222
1347.656250	-56.206135
1348.632812	-55.120155
1349.609375	-55.501427
1350.585938	-54.825138
1351.562500	-54.582226
1352.539062	-54.588985
1353.515625	-55.052494
1354.492188	-54.175701
1355.468750	-53.882774
1356.445312	-55.615734
1357.421875	-56.525982
1358.398438	-54.791767
1359.375000	-54.935852
1360.351562	-52.889805
1361.328125	-53.228458
1362.304688	-54.244328
1363.281250	-55.184380
1364.257812	-57.506519
1365.234375	-56.936703
1366.210938	-54.978962
1367.187500	-55.352982
1368.164062	-53.730198
1369.140625	-55.911648
1370.117188	-55.171566
1371.093750	-56.651371
1372.070312	-57.328590
1373.046875	-55.917786
1374.023438	-56.195084
1375.000000	-55.137318
1375.976562	-54.357315
1376.953125	-55.438763
1377.929688	-55.282787
1378.906250	-54.637997
1379.882812	-54.620388
1380.859375	-55.720562
1381.835938	-55.872593
1382.812500	-55.464508
1383.789062	-55.788338
1384.765625	-55.347748
1385.742188	-54.335346
1386.718750	-55.144230
1387.695312	-54.922287
1388.671875	-55.761059
1389.648438	-55.715958
1390.625000	-55.930801
1391.601562	-54.144184
1392.578125	-54.691433
1393.554688	-55.776211
1394.531250	-56.093056
1395.507812	-55.652138
1396.484375	-56.008640
1397.460938	-55.654289
1398.437500	-56.134289
1399.414062	-56.147526
1400.390625	-56.417267
1401.367188	-56.819641
1402.343750	-57.019501
1403.320312	-56.358364
1404.296875	-55.526302
1405.273438	-55.868813
1406.250000	-56.124992
1407.226562	-56.227692
1408.203125	-55.227833
1409.179688	-55.725864
1410.156250	-55.042202
1411.132812	-55.397388
1412.109375	-56.316574
1413.085938	-53.916985
1414.062500	-55.267799
1415.039062	-54.695900
1416.015625	-54.493107
1416.992188	-54.902115
1417.968750	-54.947788
1418.945312	-55.205524
1419.921875	-56.038311
1420.898438	-56.600540
1421.875000	-55.737427
1422.851562	-56.881748
1423.828125	-56.785233
1424.804688	-55.550632
1425.781250	-56.832535
1426.757812	-55.928219
1427.734375	-54.872028
1428.710938	-57.051186
1429.687500	-55.692871
1430.664062	-54.573082
1431.640625	-56.022621
1432.617188	-55.958599
1433.593750	-55.478886
1434.570312	-55.814705
1435.546875	-55.007607
1436.523438	-56.023960
1437.500000	-56.258743
1438.476562	-56.117027
1439.453125	-56.372688
1440.429688	-54.910286
1441.406250	-53.579067
1442.382812	-54.918236
1443.359375	-55.904400
1444.335938	-55.860271
1445.312500	-56.508766
1446.289062	-55.274517
1447.265625	-55.766937
1448.242188	-55.450886
1449.218750	-57.307121
1450.195312	-55.008541
1451.171875	-55.704666
1452.148438	-55.824219
1453.125000	-55.938652
1454.101562	-56.634300
1455.078125	-56.443325
1456.054688	-55.503826
1457.031250	-56.543556
1458.007812	-56.375549
1458.984375	-54.805367
1459.960938	-56.100143
1460.937500	-55.872452
1461.914062	-56.629139
1462.890625	-55.925739
1463.867188	-56.728256
1464.843750	-56.243664
1465.820312	-55.517822
1466.796875	-56.070724
1467.773438	-58.202572
1468.750000	-58.254707
1469.726562	-55.823769
1470.703125	-58.241970
1471.679688	-55.627449
1472.656250	-55.348862
1473.632812	-56.502243
1474.609375	-55.999443
1475.585938	-55.847008
1476.562500	-57.402508
1477.539062	-55.733707
1478.515625	-56.448662
1479.492188	-56.432423
1480.468750	-55.507977
1481.445312	-55.917152
1482.421875	-55.191612
1483.398438	-55.818100
1484.375000	-56.104328
1485.351562	-57.636089
1486.328125	-57.972843
1487.304688	-56.589027
1488.281250	-57.262768
1489.257812	-56.315842
1490.234375	-56.914158
1491.210938	-56.645939
1492.187500	-57.120804
1493.164062	-55.872208
1494.140625	-57.290096
1495.117188	-56.685940
1496.093750	-56.305470
1497.070312	-57.539886
1498.046875	-56.073250
1499.023438	-56.826263
1500.000000	-55.590477
1500.976562	-56.719135
1501.953125	-56.271828
1502.929688	-57.194229
1503.906250	-55.792961
1504.882812	-57.299118
1505.859375	-55.659088
1506.835938	-56.812450
1507.812500	-57.487480
1508.789062	-56.110058
1509.765625	-56.928928
1510.742188	-55.003620
1511.718750	-56.585835
1512.695312	-56.216549
1513.671875	-56.256786
1514.648438	-55.678654
1515.625000	-54.781971
1516.601562	-54.807087
1517.578125	-55.868671
1518.554688	-55.440723
1519.531250	-54.757145
1520.507812	-54.917953
1521.484375	-56.098801
1522.460938	-56.228695
1523.437500	-57.335709
1524.414062	-56.000355
1525.390625	-55.408669
1526.367188	-55.952366
1527.343750	-55.997288
1528.320312	-55.935745
1529.296875	-54.940636
1530.273438	-56.390648
1531.250000	-56.697723
1532.226562	-57.028191
1533.203125	-57.613472
1534.179688	-55.974800
1535.156250	-55.861027
1536.132812	-56.459263
1537.109375	-56.224655
1538.085938	-56.655708
1539.062500	-55.408978
1540.039062	-56.275372
1541.015625	-55.831638
1541.992188	-56.893963
1542.968750	-55.673653
1543.945312	-56.774284
1544.921875	-57.370586
1545.898438	-56.122898
1546.875000	-55.669392
1547.851562	-55.355324
1548.828125	-56.798573
1549.804688	-56.825039
1550.781250	-55.715775
1551.757812	-55.400627
1552.734375	-55.699886
1553.710938	-55.719101
1554.687500	-56.138046
1555.664062	-56.035759
1556.640625	-55.560692
1557.617188	-55.077812
1558.593750	-55.430202
1559.570312	-54.900566
1560.546875	-57.175323
1561.523438	-56.224400
1562.500000	-55.212101
1563.476562	-55.244843
1564.453125	-56.553516
1565.429688	-55.498734
1566.406250	-55.952473
1567.382812	-57.033188
1568.359375	-56.627274
1569.335938	-55.097691
1570.312500	-56.249847
1571.289062	-56.989975
1572.265625	-55.890129
1573.242188	-55.112537
1574.218750	-55.846142
1575.195312	-55.636677
1576.171875	-57.033894
1577.148438	-57.057678
1578.125000	-56.848572
1579.101562	-55.277931
1580.078125	-56.239555
1581.054688	-55.231815
1582.031250	-54.989536
1583.007812	-56.496086
1583.984375	-55.777832
1584.960938	-54.764275
1585.937500	-55.927921
1586.914062	-56.112759
1587.890625	-55.709702
1588.867188	-57.526138
1589.843750	-55.827324
1590.820312	-54.982273
1591.796875	-56.621113
1592.773438	-55.231850
1593.750000	-55.445309
1594.726562	-55.849495
1595.703125	-56.749542
1596.679688	-56.442669
1597.656250	-55.446964
1598.632812	-56.287102
1599.609375	-56.958138
1600.585938	-56.168533
1601.562500	-57.233711
1602.539062	-56.857609
1603.515625	-57.609230
1604.492188	-56.775700
1605.468750	-57.537903
1606.445312	-57.043037
1607.421875	-56.560104
1608.398438	-57.499916
1609.375000	-56.190235
1610.351562	-56.675579
1611.328125	-56.408150
1612.304688	-55.748695
1613.281250	-56.927155
1614.257812	-56.227310
1615.234375	-56.147472
1616.210938	-56.574337
1617.187500	-55.661369
1618.164062	-56.138336
1619.140625	-58.181019
1620.117188	-55.806728
1621.093750	-55.411640
1622.070312	-55.943073
1623.046875	-55.942490
1624.023438	-56.171127
1625.000000	-54.879890
1625.976562	-54.253361
1626.953125	-55.005959
1627.929688	-54.588024
1628.906250	-54.255829
1629.882812	-54.614063
1630.859375	-54.957722
1631.835938	-53.116055
1632.812500	-54.949516
1633.789062	-55.652199
1634.765625	-54.997208
1635.742188	-52.778988
1636.718750	-54.127686
1637.695312	-54.675983
1638.671875	-55.749126
1639.648438	-54.197735
1640.625000	-55.606075
1641.601562	-56.580669
1642.578125	-55.693703
1643.554688	-54.256878
1644.531250	-54.890980
1645.507812	-54.957981
1646.484375	-54.840492
1647.460938	-54.686485
1648.437500	-53.797665
1649.414062	-53.671124
1650.390625	-54.066582
1651.367188	-53.467621
1652.343750	-53.521992
1653.320312	-53.260422
1654.296875	-54.040035
1655.273438	-53.204453
1656.250000	-53.755901
1657.226562	-53.973415
1658.203125	-54.134438
1659.179688	-55.525536
1660.156250	-54.640903
1661.132812	-53.668335
1662.109375	-53.326859
1663.085938	-54.054157
1664.062500	-54.876793
1665.039062	-55.795544
1666.015625	-53.691536
1666.992188	-53.741833
1667.968750	-53.239731
1668.945312	-54.295322
1669.921875	-53.438763
1670.898438	-53.071259
1671.875000	-51.313393
1672.851562	-51.996929
1673.828125	-52.197430
1674.804688	-52.062466
1675.781250	-51.938454
1676.757812	-50.527344
1677.734375	-50.203003
1678.710938	-51.340137
1679.687500	-51.413555
1680.664062	-52.167286
1681.640625	-53.413063
1682.617188	-52.708714
1683.593750	-52.189472
1684.570312	-52.673855
1685.546875	-53.192410
1686.523438	-52.842472
1687.500000	-52.729210
1688.476562	-52.913544
1689.453125	-53.047543
1690.429688	-52.295082
1691.406250	-52.101376
1692.382812	-51.503193
1693.359375	-51.822479
1694.335938	-50.098499
1695.312500	-50.351147
1696.289062	-50.539078
1697.265625	-50.925571
1698.242188	-50.513336
1699.218750	-51.196518
1700.195312	-49.041611
1701.171875	-50.731544
1702.148438	-49.136646
1703.125000	-52.183945
1704.101562	-51.672104
1705.078125	-50.879002
1706.054688	-52.592445
1707.031250	-51.822388
1708.007812	-49.862564
1708.984375	-50.385349
1709.960938	-50.713211
1710.937500	-50.016220
1711.914062	-50.409515
1712.890625	-50.842407
1713.867188	-50.212193
1714.843750	-50.671173
1715.820312	-51.273495
1716.796875	-49.417625
1717.773438	-48.842850
1718.750000	-50.373363
1719.726562	-50.840084
1720.703125	-49.995598
1721.679688	-49.557926
1722.656250	-50.178188
1723.632812	-49.638920
1724.609375	-50.924904
1725.585938	-50.351295
1726.562500	-49.993217
1727.539062	-50.682262
1728.515625	-50.265221
1729.492188	-49.983757
1730.468750	-49.943138
1731.445312	-49.811653
1732.421875	-50.082748
1733.398438	-50.103344
1734.375000	-48.893620
1735.351562	-48.859211
1736.328125	-49.932350
1737.304688	-48.619064
1738.281250	-48.309502
1739.257812	-47.290325
1740.234375	-47.593227
1741.210938	-47.577961
1742.187500	-47.151516
1743.164062	-48.224339
1744.140625	-47.769196
1745.117188	-47.942238
1746.093750	-47.628044
1747.070312	-47.242672
1748.046875	-47.779583
1749.023438	-48.615788
1750.000000	-48.598461
1750.976562	-48.226143
1751.953125	-48.062790
1752.929688	-47.872440
1753.906250	-48.689705
1754.882812	-47.455814
1755.859375	-49.428520
1756.835938	-49.242096
1757.812500	-48.618088
1758.789062	-50.056564
1759.765625	-48.309525
1760.742188	-48.602467
1761.718750	-47.715069
1762.695312	-48.056747
1763.671875	-47.957352
1764.648438	-46.852924
1765.625000	-49.096664
1766.601562	-47.812153
1767.578125	-47.955624
1768.554688	-48.169697
1769.531250	-47.520058
1770.507812	-47.302273
1771.484375	-49.045776
1772.460938	-48.540134
1773.437500	-49.119625
1774.414062	-46.912865
1775.390625	-46.557552
1776.367188	-46.660427
1777.343750	-48.137203
1778.320312	-48.523350
1779.296875	-47.623295
1780.273438	-48.220692
1781.250000	-46.251659
1782.226562	-46.320740
1783.203125	-47.314285
1784.179688	-45.028198
1785.156250	-46.289700
1786.132812	-45.506027
1787.109375	-46.029484
1788.085938	-46.224937
1789.062500	-48.017353
1790.039062	-46.954121
1791.015625	-47.570248
1791.992188	-46.643642
1792.968750	-45.917824
1793.945312	-46.787445
1794.921875	-46.854168
1795.898438	-47.386784
1796.875000	-47.499603
1797.851562	-47.923187
1798.828125	-47.916508
1799.804688	-46.372963
1800.781250	-48.923210
1801.757812	-48.080406
1802.734375	-46.804623
1803.710938	-48.591816
1804.687500	-46.729538
1805.664062	-46.686222
1806.640625	-49.258442
1807.617188	-46.873676
1808.593750	-46.801464
1809.570312	-45.938145
1810.546875	-46.403854
1811.523438	-46.236843
1812.500000	-46.784096
1813.476562	-47.220211
1814.453125	-47.383053
1815.429688	-47.154675
1816.406250	-46.785976
1817.382812	-45.027790
1818.359375	-45.684681
1819.335938	-45.509190
1820.312500	-45.874310
1821.289062	-45.846310
1822.265625	-47.392387
1823.242188	-46.373581
1824.218750	-46.672646
1825.195312	-46.373962
1826.171875	-46.588890
1827.148438	-47.342163
1828.125000	-46.540352
1829.101562	-45.576210
1830.078125	-45.659706
1831.054688	-46.078396
1832.031250	-44.475956
1833.007812	-43.784813
1833.984375	-43.675102
1834.960938	-45.792503
1835.937500	-45.975502
1836.914062	-44.900562
1837.890625	-45.203606
1838.867188	-46.533760
1839.843750	-45.384914
1840.820312	-44.610256
1841.796875	-43.569004
1842.773438	-44.091022
1843.750000	-44.234825
1844.726562	-44.674374
1845.703125	-44.665001
1846.679688	-45.366333
1847.656250	-47.094856
1848.632812	-46.438030
1849.609375	-45.234394
1850.585938	-44.599148
1851.562500	-45.828426
1852.539062	-44.863976
1853.515625	-44.973534
1854.492188	-45.006935
1855.468750	-44.592155
1856.445312	-42.618744
1857.421875	-43.414597
1858.398438	-43.526089
1859.375000	-44.968102
1860.351562	-45.098064
1861.328125	-45.689384
1862.304688	-45.759651
1863.281250	-44.496017
1864.257812	-46.250423
1865.234375	-46.579014
1866.210938	-46.515682
1867.187500	-45.843643
1868.164062	-45.973465
1869.140625	-45.252266
1870.117188	-47.419899
1871.093750	-47.413139
1872.070312	-47.562992
1873.046875	-46.075722
1874.023438	-46.099598
1875.000000	-45.943398
1875.976562	-45.311924
1876.953125	-45.118313
1877.929688	-45.594410
1878.906250	-45.525002
1879.882812	-45.841614
1880.859375	-46.008072
1881.835938	-46.051678
1882.812500	-45.388134
1883.789062	-47.902088
1884.765625	-46.287136
1885.742188	-46.859051
1886.718750	-46.135658
1887.695312	-47.025917
1888.671875	-46.574028
1889.648438	-47.269135
1890.625000	-46.207394
1891.601562	-46.215855
1892.578125	-48.508118
1893.554688	-48.176170
1894.531250	-47.847839
1895.507812	-47.756935
1896.484375	-46.627777
1897.460938	-45.903664
1898.437500	-45.352936
1899.414062	-45.994522
1900.390625	-46.216957
1901.367188	-47.628777
1902.343750	-46.797035
1903.320312	-48.021141
1904.296875	-47.556873
1905.273438	-47.020081
1906.250000	-45.328579
1907.226562	-47.096447
1908.203125	-47.581730
1909.179688	-49.075779
1910.156250	-49.372654
1911.132812	-48.819088
1912.109375	-49.017162
1913.085938	-49.002689
1914.062500	-47.448456
1915.039062	-49.780445
1916.015625	-50.336384
1916.992188	-50.121513
1917.968750	-48.883972
1918.945312	-48.324631
1919.921875	-49.281677
1920.898438	-48.353668
1921.875000	-48.707005
1922.851562	-49.745510
1923.828125	-48.901581
1924.804688	-49.043331
1925.781250	-50.489319
1926.757812	-49.327709
1927.734375	-50.558342
1928.710938	-49.643356
1929.687500	-49.607037
1930.664062	-50.302155
1931.640625	-49.887005
1932.617188	-51.001186
1933.593750	-49.360043
1934.570312	-50.221550
1935.546875	-49.828045
1936.523438	-49.277653
1937.500000	-49.960289
1938.476562	-49.206280
1939.453125	-49.870972
1940.429688	-50.773323
1941.406250	-50.392426
1942.382812	-49.710243
1943.359375	-48.648178
1944.335938	-49.577080
1945.312500	-50.310490
1946.289062	-50.951931
1947.265625	-49.135803
1948.242188	-48.719662
1949.218750	-49.359833
1950.195312	-49.600704
1951.171875	-51.798317
1952.148438	-50.133137
1953.125000	-50.109936
1954.101562	-49.413208
1955.078125	-49.254471
1956.054688	-50.168602
1957.031250	-50.599068
1958.007812	-51.202774
1958.984375	-49.442459
1959.960938	-48.307934
1960.937500	-50.511295
1961.914062	-49.989124
1962.890625	-50.074238
1963.867188	-49.877422
1964.843750	-50.820702
1965.820312	-49.993538
1966.796875	-49.677799
1967.773438	-50.440300
1968.750000	-49.093113
1969.726562	-50.361164
1970.703125	-47.789490
1971.679688	-47.650917
1972.656250	-49.052326
1973.632812	-49.461292
1974.609375	-49.038387
1975.585938	-48.918797
1976.562500	-49.449471
1977.539062	-49.153313
1978.515625	-49.052158
1979.492188	-48.697666
1980.468750	-48.688881
1981.445312	-49.548786
1982.421875	-48.666782
1983.398438	-47.941700
1984.375000	-49.214916
1985.351562	-49.713947
1986.328125	-49.445625
1987.304688	-49.538677
1988.281250	-49.415897
1989.257812	-50.397568
1990.234375	-49.410187
1991.210938	-49.313393
1992.187500	-48.881748
1993.164062	-48.611259
1994.140625	-47.274014
1995.117188	-48.287594
1996.093750	-49.907768
1997.070312	-49.417278
1998.046875	-48.436222
1999.023438	-49.171711
2000.000000	-49.100906
2000.976562	-49.689354
2001.953125	-49.633793
2002.929688	-49.817490
2003.906250	-49.493069
2004.882812	-48.705620
2005.859375	-48.603420
2006.835938	-48.829971
2007.812500	-48.949726
2008.789062	-48.632542
2009.765625	-48.044495
2010.742188	-50.644653
2011.718750	-50.467449
2012.695312	-48.939148
2013.671875	-50.049572
2014.648438	-50.944138
2015.625000	-50.234844
2016.601562	-46.998085
2017.578125	-47.703613
2018.554688	-47.668369
2019.531250	-49.935978
2020.507812	-50.655441
2021.484375	-48.989902
2022.460938	-49.124664
2023.437500	-49.761883
2024.414062	-49.522594
2025.390625	-50.750450
2026.367188	-50.051243
2027.343750	-49.889561
2028.320312	-50.406521
2029.296875	-49.569393
2030.273438	-49.094131
2031.250000	-47.315979
2032.226562	-48.743172
2033.203125	-49.010143
2034.179688	-49.663635
2035.156250	-49.220581
2036.132812	-49.298172
2037.109375	-49.994598
2038.085938	-49.134415
2039.062500	-48.805611
2040.039062	-50.096951
2041.015625	-49.346226
2041.992188	-49.254395
2042.968750	-48.157310
2043.945312	-47.043903
2044.921875	-49.450310
2045.898438	-48.756313
2046.875000	-48.810680
2047.851562	-49.491058
2048.828125	-50.434124
2049.804688	-49.435635
2050.781250	-49.974102
2051.757812	-49.805653
2052.734375	-49.174427
2053.710938	-48.966339
2054.687500	-47.867188
2055.664062	-49.669865
2056.640625	-49.037228
2057.617188	-48.371113
2058.593750	-48.960434
2059.570312	-47.295845
2060.546875	-48.682194
2061.523438	-49.297886
2062.500000	-50.330853
2063.476562	-47.098679
2064.453125	-47.554989
2065.429688	-46.155235
2066.406250	-45.782253
2067.382812	-48.193317
2068.359375	-49.210361
2069.335938	-46.401932
2070.312500	-45.961758
2071.289062	-47.217140
2072.265625	-48.068672
2073.242188	-49.500206
2074.218750	-46.927349
2075.195312	-46.754440
2076.171875	-45.994236
2077.148438	-47.424553
2078.125000	-48.131660
2079.101562	-47.653568
2080.078125	-46.997887
2081.054688	-47.993233
2082.031250	-46.368778
2083.007812	-49.463047
2083.984375	-49.475986
2084.960938	-47.146698
2085.937500	-46.976540
2086.914062	-45.696957
2087.890625	-45.480175
2088.867188	-45.965908
2089.843750	-47.187813
2090.820312	-47.163013
2091.796875	-47.400402
2092.773438	-45.563282
2093.750000	-47.707386
2094.726562	-47.387196
2095.703125	-45.890274
2096.679688	-46.559490
2097.656250	-46.997498
2098.632812	-44.805916
2099.609375	-45.777676
2100.585938	-45.686447
2101.562500	-45.023350
2102.539062	-46.010578
2103.515625	-44.711288
2104.492188	-43.425705
2105.468750	-46.292995
2106.445312	-47.304432
2107.421875	-44.746174
2108.398438	-44.998737
2109.375000	-42.675549
2110.351562	-42.140800
2111.328125	-43.006088
2112.304688	-43.596603
2113.281250	-43.055626
2114.257812	-43.757881
2115.234375	-43.799026
2116.210938	-43.325169
2117.187500	-41.926826
2118.164062	-43.579571
2119.140625	-43.161407
2120.117188	-42.396500
2121.093750	-42.771217
2122.070312	-44.174240
2123.046875	-42.320461
2124.023438	-41.827358
2125.000000	-42.776543
2125.976562	-42.934895
2126.953125	-41.420658
2127.929688	-41.641441
2128.906250	-41.858162
2129.882812	-41.218830
2130.859375	-42.275665
2131.835938	-38.970421
2132.812500	-37.620590
2133.789062	-39.159412
2134.765625	-41.480267
2135.742188	-40.475849
2136.718750	-38.054737
2137.695312	-38.059345
2138.671875	-41.220444
2139.648438	-41.586269
2140.625000	-40.822346
2141.601562	-39.300388
2142.578125	-38.734806
2143.554688	-38.617744
2144.531250	-40.148739
2145.507812	-39.942162
2146.484375	-39.001091
2147.460938	-39.001053
2148.437500	-37.025959
2149.414062	-38.067471
2150.390625	-38.860302
2151.367188	-37.841515
2152.343750	-37.693707
2153.320312	-37.932007
2154.296875	-39.209297
2155.273438	-37.781784
2156.250000	-35.419285
2157.226562	-36.971924
2158.203125	-38.678192
2159.179688	-37.278610
2160.156250	-35.877659
2161.132812	-37.959610
2162.109375	-38.709278
2163.085938	-37.927780
2164.062500	-36.877728
2165.039062	-34.553158
2166.015625	-35.164490
2166.992188	-37.547268
2167.968750	-37.391548
2168.945312	-35.183002
2169.921875	-35.527424
2170.898438	-35.800583
2171.875000	-35.792442
2172.851562	-35.186470
2173.828125	-35.880909
2174.804688	-36.181309
2175.781250	-33.902988
2176.757812	-33.031044
2177.734375	-33.024025
2178.710938	-34.985630
2179.687500	-35.328251
2180.664062	-36.634418
2181.640625	-34.251842
2182.617188	-32.843784
2183.593750	-33.703976
2184.570312	-36.885731
2185.546875	-35.555794
2186.523438	-36.813904
2187.500000	-34.316513
2188.476562	-33.170521
2189.453125	-31.710613
2190.429688	-31.805416
2191.406250	-33.914665
2192.382812	-32.882072
2193.359375	-35.433170
2194.335938	-33.001705
2195.312500	-32.297657
2196.289062	-34.340790
2197.265625	-32.982292
2198.242188	-31.162437
2199.218750	-33.203785
2200.195312	-32.486950
2201.171875	-34.458027
2202.148438	-32.305294
2203.125000	-32.505787
2204.101562	-32.395084
2205.078125	-33.013935
2206.054688	-32.271042
2207.031250	-32.316689
2208.007812	-32.198433
2208.984375	-34.005398
2209.960938	-31.576099
2210.937500	-28.929535
2211.914062	-31.210882
2212.890625	-34.417133
2213.867188	-32.707851
2214.843750	-31.078400
2215.820312	-31.472597
2216.796875	-30.729465
2217.773438	-30.112339
2218.750000	-32.296032
2219.726562	-31.625784
2220.703125	-30.008194
2221.679688	-28.703453
2222.656250	-29.910860
2223.632812	-29.405519
2224.609375	-29.095100
2225.585938	-29.258184
2226.562500	-31.031914
2227.539062	-31.288555
2228.515625	-30.238720
2229.492188	-31.451641
2230.468750	-31.774561
2231.445312	-28.894028
2232.421875	-29.725964
2233.398438	-29.391584
2234.375000	-30.260843
2235.351562	-29.762527
2236.328125	-30.274048
2237.304688	-31.297182
2238.281250	-29.266331
2239.257812	-27.918983
2240.234375	-30.746426
2241.210938	-29.382223
2242.187500	-28.707823
2243.164062	-27.912750
2244.140625	-27.623560
2245.117188	-28.175112
2246.093750	-28.715723
2247.070312	-27.930843
2248.046875	-27.455631
2249.023438	-28.222046
2250.000000	-30.013454
2250.976562	-29.815939
2251.953125	-28.294378
2252.929688	-29.200098
2253.906250	-28.730492
2254.882812	-29.719845
2255.859375	-27.797163
2256.835938	-29.188080
2257.812500	-29.309496
2258.789062	-27.823895
2259.765625	-30.353563
2260.742188	-29.268250
2261.718750	-27.370136
2262.695312	-27.991358
2263.671875	-30.430305
2264.648438	-27.707603
2265.625000	-26.190788
2266.601562	-27.752951
2267.578125	-30.264256
2268.554688	-27.472551
2269.531250	-27.125780
2270.507812	-28.138514
2271.484375	-30.348011
2272.460938	-28.939077
2273.437500	-29.089830
2274.414062	-28.918613
2275.390625	-28.593235
2276.367188	-27.079466
2277.343750	-28.115662
2278.320312	-29.201803
2279.296875	-28.231354
2280.273438	-28.461136
2281.250000	-28.374359
2282.226562	-28.712206
2283.203125	-26.884031
2284.179688	-26.617199
2285.156250	-27.187950
2286.132812	-25.450899
2287.109375	-26.551958
2288.085938	-27.571081
2289.062500	-26.559717
2290.039062	-26.402781
2291.015625	-27.085823
2291.992188	-28.104662
2292.968750	-28.657032
2293.945312	-27.771597
2294.921875	-27.196478
2295.898438	-28.621357
2296.875000	-26.182648
2297.851562	-27.062437
2298.828125	-28.169510
2299.804688	-28.198837
2300.781250	-27.991014
2301.757812	-28.492344
2302.734375	-28.662012
2303.710938	-28.244904
2304.687500	-28.425060
2305.664062	-26.232248
2306.640625	-26.747036
2307.617188	-27.677347
2308.593750	-27.484247
2309.570312	-26.592964
2310.546875	-26.690168
2311.523438	-28.582548
2312.500000	-27.517588
2313.476562	-27.024416
2314.453125	-26.876740
2315.429688	-26.567076
2316.406250	-27.597721
2317.382812	-28.811441
2318.359375	-27.045141
2319.335938	-27.397614
2320.312500	-28.257576
2321.289062	-28.255449
2322.265625	-26.474010
2323.242188	-27.136261
2324.218750	-26.878845
2325.195312	-27.600969
2326.171875	-29.038958
2327.148438	-29.133705
2328.125000	-28.244055
2329.101562	-27.650702
2330.078125	-27.710634
2331.054688	-26.701593
2332.031250	-27.435787
2333.007812	-30.725142
2333.984375	-28.789551
2334.960938	-29.640295
2335.937500	-28.886965
2336.914062	-28.835131
2337.890625	-28.197618
2338.867188	-28.768480
2339.843750	-28.460815
2340.820312	-28.558619
2341.796875	-28.075117
2342.773438	-28.136660
2343.750000	-28.179173
2344.726562	-29.398106
2345.703125	-29.105032
2346.679688	-28.328920
2347.656250	-29.023478
2348.632812	-29.334551
2349.609375	-29.663286
2350.585938	-28.728260
2351.562500	-28.990803
2352.539062	-29.032196
2353.515625	-29.845116
2354.492188	-29.354887
2355.468750	-29.695805
2356.445312	-28.810419
2357.421875	-29.356730
2358.398438	-30.064323
2359.375000	-29.032274
2360.351562	-29.115288
2361.328125	-29.660643
2362.304688	-30.377909
2363.281250	-28.879753
2364.257812	-27.523891
2365.234375	-27.939396
2366.210938	-29.201551
2367.187500	-30.167469
2368.164062	-30.621078
2369.140625	-28.898615
2370.117188	-29.877670
2371.093750	-30.552750
2372.070312	-29.857130
2373.046875	-28.583254
2374.023438	-29.100985
2375.000000	-29.206022
2375.976562	-28.371120
2376.953125	-30.071907
2377.929688	-29.680815
2378.906250	-28.635679
2379.882812	-30.713005
2380.859375	-30.895781
2381.835938	-30.720030
2382.812500	-28.850155
2383.789062	-28.677664
2384.765625	-29.771454
2385.742188	-29.589636
2386.718750	-30.320065
2387.695312	-29.325586
2388.671875	-29.446653
2389.648438	-30.626539
2390.625000	-31.325237
2391.601562	-30.711388
2392.578125	-30.192236
2393.554688	-29.799204
2394.531250	-28.930658
2395.507812	-29.415487
2396.484375	-31.249334
2397.460938	-30.942675
2398.437500	-30.369282
2399.414062	-30.355558
2400.390625	-30.625446
2401.367188	-31.228104
2402.343750	-30.039879
2403.320312	-29.872269
2404.296875	-29.692198
2405.273438	-29.632708
2406.250000	-31.182880
2407.226562	-29.433367
2408.203125	-28.829826
2409.179688	-31.405531
2410.156250	-30.556320
2411.132812	-31.689718
2412.109375	-31.741720
2413.085938	-30.188688
2414.062500	-29.582859
2415.039062	-30.802925
2416.015625	-30.272951
2416.992188	-29.540543
2417.968750	-30.250530
2418.945312	-29.981268
2419.921875	-31.173523
2420.898438	-31.962042
2421.875000	-32.980911
2422.851562	-30.940462
2423.828125	-29.763197
2424.804688	-29.436548
2425.781250	-29.427654
2426.757812	-29.472336
2427.734375	-30.989920
2428.710938	-31.508806
2429.687500	-30.763474
2430.664062	-32.249519
2431.640625	-32.681900
2432.617188	-31.018040
2433.593750	-28.746981
2434.570312	-29.348070
2435.546875	-30.713400
2436.523438	-30.502245
2437.500000	-31.439341
2438.476562	-30.960478
2439.453125	-30.905535
2440.429688	-30.500805
2441.406250	-31.062437
2442.382812	-29.298561
2443.359375	-29.624920
2444.335938	-30.483990
2445.312500	-30.253540
2446.289062	-30.856672
2447.265625	-30.607897
2448.242188	-31.360371
2449.218750	-30.679020
2450.195312	-30.763620
2451.171875	-31.345867
2452.148438	-29.569197
2453.125000	-30.822670
2454.101562	-30.561417
2455.078125	-30.465080
2456.054688	-29.358543
2457.031250	-30.111437
2458.007812	-30.779755
2458.984375	-31.904499
2459.960938	-30.197468
2460.937500	-32.376686
2461.914062	-30.564581
2462.890625	-30.120874
2463.867188	-27.822355
2464.843750	-28.903219
2465.820312	-29.188978
2466.796875	-31.625942
2467.773438	-29.802628
2468.750000	-31.086433
2469.726562	-31.929621
2470.703125	-30.488010
2471.679688	-29.324963
2472.656250	-30.336645
2473.632812	-30.689167
2474.609375	-29.358685
2475.585938	-28.662775
2476.562500	-29.120071
2477.539062	-31.828480
2478.515625	-31.073734
2479.492188	-30.642275
2480.468750	-32.296234
2481.445312	-30.789433
2482.421875	-30.513216
2483.398438	-29.762117
2484.375000	-29.005640
2485.351562	-29.801344
2486.328125	-31.183214
2487.304688	-31.708691
2488.281250	-30.188892
2489.257812	-28.979605
2490.234375	-28.869692
2491.210938	-30.083300
2492.187500	-30.167843
2493.164062	-29.252504
2494.140625	-29.183340
2495.117188	-29.143656
2496.093750	-30.782383
2497.070312	-30.397541
2498.046875	-33.054413
2499.023438	-30.871834
2500.000000	-29.316406
2500.976562	-28.555420
2501.953125	-27.363089
2502.929688	-29.258942
2503.906250	-29.567486
2504.882812	-32.326927
2505.859375	-33.334946
2506.835938	-32.926914
2507.812500	-31.416502
2508.789062	-31.618090
2509.765625	-30.612444
2510.742188	-30.067505
2511.718750	-29.951687
2512.695312	-31.504307
2513.671875	-30.649483
2514.648438	-29.957037
2515.625000	-30.390846
2516.601562	-31.308937
2517.578125	-31.307909
2518.554688	-29.604811
2519.531250	-29.176617
2520.507812	-29.841324
2521.484375	-30.676970
2522.460938	-29.597654
2523.437500	-29.452808
2524.414062	-31.023766
2525.390625	-31.597984
2526.367188	-31.987623
2527.343750	-30.124218
2528.320312	-31.462725
2529.296875	-31.792700
2530.273438	-31.156021
2531.250000	-30.801989
2532.226562	-32.054020
2533.203125	-31.568634
2534.179688	-30.746851
2535.156250	-30.944427
2536.132812	-29.656057
2537.109375	-29.030052
2538.085938	-30.292795
2539.062500	-30.122942
2540.039062	-29.335321
2541.015625	-30.010801
2541.992188	-27.680166
2542.968750	-27.763706
2543.945312	-30.131153
2544.921875	-29.690910
2545.898438	-30.623934
2546.875000	-29.655365
2547.851562	-31.394451
2548.828125	-31.796137
2549.804688	-31.493139
2550.781250	-31.370327
2551.757812	-32.465633
2552.734375	-31.696812
2553.710938	-31.855806
2554.687500	-31.416609
2555.664062	-31.774197
2556.640625	-31.362936
2557.617188	-33.248886
2558.593750	-31.470787
2559.570312	-30.622984
2560.546875	-30.222015
2561.523438	-30.561892
2562.500000	-31.424932
2563.476562	-30.650089
2564.453125	-29.205074
2565.429688	-28.450352
2566.406250	-29.737494
2567.382812	-29.496231
2568.359375	-30.327030
2569.335938	-32.265396
2570.312500	-32.285652
2571.289062	-33.159634
2572.265625	-33.135857
2573.242188	-32.826672
2574.218750	-32.139458
2575.195312	-33.772434
2576.171875	-32.832493
2577.148438	-32.935081
2578.125000	-33.511318
2579.101562	-34.879814
2580.078125	-35.140911
2581.054688	-34.854172
2582.031250	-34.502934
2583.007812	-35.676971
2583.984375	-36.119259
2584.960938	-35.709732
2585.937500	-36.552776
2586.914062	-34.244576
2587.890625	-33.191814
2588.867188	-32.630241
2589.843750	-34.187241
2590.820312	-36.308983
2591.796875	-36.149719
2592.773438	-33.226307
2593.750000	-33.688263
2594.726562	-34.669121
2595.703125	-35.025494
2596.679688	-35.013985
2597.656250	-34.259941
2598.632812	-34.449741
2599.609375	-35.670193
2600.585938	-37.804699
2601.562500	-38.414204
2602.539062	-38.069149
2603.515625	-37.536446
2604.492188	-38.711632
2605.468750	-37.845478
2606.445312	-37.697685
2607.421875	-36.779301
2608.398438	-37.290623
2609.375000	-39.002983
2610.351562	-39.459728
2611.328125	-37.903889
2612.304688	-36.376125
2613.281250	-36.867302
2614.257812	-36.325489
2615.234375	-35.926853
2616.210938	-38.018623
2617.187500	-38.073490
2618.164062	-37.780453
2619.140625	-36.343533
2620.117188	-36.338032
2621.093750	-36.324425
2622.070312	-38.377861
2623.046875	-38.836903
2624.023438	-37.467705
2625.000000	-40.212620
2625.976562	-40.030731
2626.953125	-39.695042
2627.929688	-37.454765
2628.906250	-37.929943
2629.882812	-39.049534
2630.859375	-39.359024
2631.835938	-38.942471
2632.812500	-38.050282
2633.789062	-37.499630
2634.765625	-37.374802
2635.742188	-39.941525
2636.718750	-40.528038
2637.695312	-38.781563
2638.671875	-38.860172
2639.648438	-39.037457
2640.625000	-38.891342
2641.601562	-39.738758
2642.578125	-39.647732
2643.554688	-38.204308
2644.531250	-39.022087
2645.507812	-39.400085
2646.484375	-39.856941
2647.460938	-41.861267
2648.437500	-39.021999
2649.414062	-38.352097
2650.390625	-38.424873
2651.367188	-38.073299
2652.343750	-38.225769
2653.320312	-39.145332
2654.296875	-40.343227
2655.273438	-42.033314
2656.250000	-42.092213
2657.226562	-40.557819
2658.203125	-41.023811
2659.179688	-40.678444
2660.156250	-40.105099
2661.132812	-39.792355
2662.109375	-39.354897
2663.085938	-40.709808
2664.062500	-40.027660
2665.039062	-40.092075
2666.015625	-38.461971
2666.992188	-39.254635
2667.968750	-37.533901
2668.945312	-37.552708
2669.921875	-38.273762
2670.898438	-38.954586
2671.875000	-38.121902
2672.851562	-39.261497
2673.828125	-39.977081
2674.804688	-39.848358
2675.781250	-40.529907
2676.757812	-42.518291
2677.734375	-42.308254
2678.710938	-41.893299
2679.687500	-44.076168
2680.664062	-41.222691
2681.640625	-40.581348
2682.617188	-40.606052
2683.593750	-38.633331
2684.570312	-38.891300
2685.546875	-40.786003
2686.523438	-37.405334
2687.500000	-37.701168
2688.476562	-38.397675
2689.453125	-38.311054
2690.429688	-38.238976
2691.406250	-38.516621
2692.382812	-40.698009
2693.359375	-40.192837
2694.335938	-39.822861
2695.312500	-41.352577
2696.289062	-40.992500
2697.265625	-39.818073
2698.242188	-40.611267
2699.218750	-41.735947
2700.195312	-41.346588
2701.171875	-39.883957
2702.148438	-42.734768
2703.125000	-40.705498
2704.101562	-41.657116
2705.078125	-38.865597
2706.054688	-37.310696
2707.031250	-37.760715
2708.007812	-38.092693
2708.984375	-37.587330
2709.960938	-38.729916
2710.937500	-40.321552
2711.914062	-40.381245
2712.890625	-40.540535
2713.867188	-40.553154
2714.843750	-41.616173
2715.820312	-39.533154
2716.796875	-41.085510
2717.773438	-39.207893
2718.750000	-39.505806
2719.726562	-39.664574
2720.703125	-38.698200
2721.679688	-41.592113
2722.656250	-37.759293
2723.632812	-38.167370
2724.609375	-39.726780
2725.585938	-37.746346
2726.562500	-41.323025
2727.539062	-38.815758
2728.515625	-39.256149
2729.492188	-40.782852
2730.468750	-40.135063
2731.445312	-40.042168
2732.421875	-40.202675
2733.398438	-39.592106
2734.375000	-41.004242
2735.351562	-39.714054
2736.328125	-38.311035
2737.304688	-39.362976
2738.281250	-40.068378
2739.257812	-40.677586
2740.234375	-37.530228
2741.210938	-38.183865
2742.187500	-38.330967
2743.164062	-38.034500
2744.140625	-39.137035
2745.117188	-37.888988
2746.093750	-38.500893
2747.070312	-39.601131
2748.046875	-39.498478
2749.023438	-39.889549
2750.000000	-42.686546
2750.976562	-38.593903
2751.953125	-39.153336
2752.929688	-39.322956
2753.906250	-37.768463
2754.882812	-37.806217
2755.859375	-36.754833
2756.835938	-39.222351
2757.812500	-39.191788
2758.789062	-37.550682
2759.765625	-38.518742
2760.742188	-37.074207
2761.718750	-39.598694
2762.695312	-41.435982
2763.671875	-38.729893
2764.648438	-38.389198
2765.625000	-38.111431
2766.601562	-39.188854
2767.578125	-39.075512
2768.554688	-40.544868
2769.531250	-37.181507
2770.507812	-37.369297
2771.484375	-39.254799
2772.460938	-37.443726
2773.437500	-37.208664
2774.414062	-36.372723
2775.390625	-37.157913
2776.367188	-35.767670
2777.343750	-34.752430
2778.320312	-33.909386
2779.296875	-33.051193
2780.273438	-35.153908
2781.250000	-38.502281
2782.226562	-35.616425
2783.203125	-37.236824
2784.179688	-36.960045
2785.156250	-35.598610
2786.132812	-38.117596
2787.109375	-35.851036
2788.085938	-35.722836
2789.062500	-36.249149
2790.039062	-34.746998
2791.015625	-34.907066
2791.992188	-37.352097
2792.968750	-38.139423
2793.945312	-34.869900
2794.921875	-35.746140
2795.898438	-36.321815
2796.875000	-35.863220
2797.851562	-36.033569
2798.828125	-33.647362
2799.804688	-35.285603
2800.781250	-31.540304
2801.757812	-33.949417
2802.734375	-34.026402
2803.710938	-35.246647
2804.687500	-32.875404
2805.664062	-35.674271
2806.640625	-35.259277
2807.617188	-33.474606
2808.593750	-34.214245
2809.570312	-35.164715
2810.546875	-35.576454
2811.523438	-35.147327
2812.500000	-34.259594
2813.476562	-35.513908
2814.453125	-35.624962
2815.429688	-36.510799
2816.406250	-33.373260
2817.382812	-31.982969
2818.359375	-34.624264
2819.335938	-35.816029
2820.312500	-36.155281
2821.289062	-34.634315
2822.265625	-33.726452
2823.242188	-32.800903
2824.218750	-35.950188
2825.195312	-36.248772
2826.171875	-34.856094
2827.148438	-31.752392
2828.125000	-33.216965
2829.101562	-35.536575
2830.078125	-35.054562
2831.054688	-34.143913
2832.031250	-34.066238
2833.007812	-34.596130
2833.984375	-34.241283
2834.960938	-34.815739
2835.937500	-34.007225
2836.914062	-35.398972
2837.890625	-33.507042
2838.867188	-33.045551
2839.843750	-34.085941
2840.820312	-34.512699
2841.796875	-35.556873
2842.773438	-33.380749
2843.750000	-32.324444
2844.726562	-33.447952
2845.703125	-34.225544
2846.679688	-32.205627
2847.656250	-32.551689
2848.632812	-32.124371
2849.609375	-32.259312
2850.585938	-31.827213
2851.562500	-31.699749
2852.539062	-31.921303
2853.515625	-32.301609
2854.492188	-32.696136
2855.468750	-31.351768
2856.445312	-33.045254
2857.421875	-33.975887
2858.398438	-32.770580
2859.375000	-32.366100
2860.351562	-33.402611
2861.328125	-31.352606
2862.304688	-32.944939
2863.281250	-33.363537
2864.257812	-32.703243
2865.234375	-32.168812
2866.210938	-32.390797
2867.187500	-33.453850
2868.164062	-32.418247
2869.140625	-32.161636
2870.117188	-32.815514
2871.093750	-31.403982
2872.070312	-34.116489
2873.046875	-31.808210
2874.023438	-32.955601
2875.000000	-28.965786
2875.976562	-31.351725
2876.953125	-32.209412
2877.929688	-33.269768
2878.906250	-33.381702
2879.882812	-32.833294
2880.859375	-32.981525
2881.835938	-30.522953
2882.812500	-31.755041
2883.789062	-33.657730
2884.765625	-36.747730
2885.742188	-36.070351
2886.718750	-37.778191
2887.695312	-35.766506
2888.671875	-35.190479
2889.648438	-34.839993
2890.625000	-35.324394
2891.601562	-36.352501
2892.578125	-36.003506
2893.554688	-36.262711
2894.531250	-35.317017
2895.507812	-34.242008
2896.484375	-34.089809
2897.460938	-36.399857
2898.437500	-32.921719
2899.414062	-33.253269
2900.390625	-32.908089
2901.367188	-36.492619
2902.343750	-36.733269
2903.320312	-36.398865
2904.296875	-37.544861
2905.273438	-35.795635
2906.250000	-36.840893
2907.226562	-38.137028
2908.203125	-39.084705
2909.179688	-38.300102
2910.156250	-38.262314
2911.132812	-36.359901
2912.109375	-34.227676
2913.085938	-36.524250
2914.062500	-37.481628
2915.039062	-39.620480
2916.015625	-39.634468
2916.992188	-38.121944
2917.968750	-38.616146
2918.945312	-37.440964
2919.921875	-34.995586
2920.898438	-37.022469
2921.875000	-37.512253
2922.851562	-36.069218
2923.828125	-35.481422
2924.804688	-37.192364
2925.781250	-36.877346
2926.757812	-40.499634
2927.734375	-39.706169
2928.710938	-38.715576
2929.687500	-40.616016
2930.664062	-38.384007
2931.640625	-38.565037
2932.617188	-40.538338
2933.593750	-36.531319
2934.570312	-37.922565
2935.546875	-38.118240
2936.523438	-38.299332
2937.500000	-38.612694
2938.476562	-42.145779
2939.453125	-42.245255
2940.429688	-42.726715
2941.406250	-42.488304
2942.382812	-37.959492
2943.359375	-37.382393
2944.335938	-40.217510
2945.312500	-39.496891
2946.289062	-40.861912
2947.265625	-41.061619
2948.242188	-36.769897
2949.218750	-38.070034
2950.195312	-42.617222
2951.171875	-42.351021
2952.148438	-41.648560
2953.125000	-41.006508
2954.101562	-39.925411
2955.078125	-39.449585
2956.054688	-40.035336
2957.031250	-42.357670
2958.007812	-43.179867
2958.984375	-42.107296
2959.960938	-39.800171
2960.937500	-39.679745
2961.914062	-40.729408
2962.890625	-43.169708
2963.867188	-46.276100
2964.843750	-41.850594
2965.820312	-40.693188
2966.796875	-40.852158
2967.773438	-39.175743
2968.750000	-43.769707
2969.726562	-43.522247
2970.703125	-44.471992
2971.679688	-44.277824
2972.656250	-39.866455
2973.632812	-39.371895
2974.609375	-41.406914
2975.585938	-42.105392
2976.562500	-43.671280
2977.539062	-42.572731
2978.515625	-41.306767
2979.492188	-42.304234
2980.468750	-43.084309
2981.445312	-43.794884
2982.421875	-44.556942
2983.398438	-43.151939
2984.375000	-44.560200
2985.351562	-41.951038
2986.328125	-42.796093
2987.304688	-45.065277
2988.281250	-44.258202
2989.257812	-43.244991
2990.234375	-44.799465
2991.210938	-43.204563
2992.187500	-41.049267
2993.164062	-44.494041
2994.140625	-42.230137
2995.117188	-45.010773
2996.093750	-48.322742
2997.070312	-46.876007
2998.046875	-44.212986
2999.023438	-41.375134
3000.000000	-47.624023
3000.976562	-47.347836
3001.953125	-44.622723
3002.929688	-43.710289
3003.906250	-43.491028
3004.882812	-43.553730
3005.859375	-45.095024
3006.835938	-44.717113
3007.812500	-45.203255
3008.789062	-46.349873
3009.765625	-45.926109
3010.742188	-47.002419
3011.718750	-47.190369
3012.695312	-47.629990
3013.671875	-47.914986
3014.648438	-46.400486
3015.625000	-45.288521
3016.601562	-44.256241
3017.578125	-46.294437
3018.554688	-43.614075
3019.531250	-47.595123
3020.507812	-46.167976
3021.484375	-49.846283
3022.460938	-48.699490
3023.437500	-46.339916
3024.414062	-49.058655
3025.390625	-48.897285
3026.367188	-47.613754
3027.343750	-47.022778
3028.320312	-45.722500
3029.296875	-44.797134
3030.273438	-46.465931
3031.250000	-46.126225
3032.226562	-47.795017
3033.203125	-46.394821
3034.179688	-49.811230
3035.156250	-48.797829
3036.132812	-50.745575
3037.109375	-52.573997
3038.085938	-50.670097
3039.062500	-49.133751
3040.039062	-47.013130
3041.015625	-47.976601
3041.992188	-47.761604
3042.968750	-45.412735
3043.945312	-47.594070
3044.921875	-47.932682
3045.898438	-49.080997
3046.875000	-50.029560
3047.851562	-50.612358
3048.828125	-51.241661
3049.804688	-49.979321
3050.781250	-50.109692
3051.757812	-50.398006
3052.734375	-48.829079
3053.710938	-47.506546
3054.687500	-49.693161
3055.664062	-47.428055
3056.640625	-48.595516
3057.617188	-48.919361
3058.593750	-50.476559
3059.570312	-50.562531
3060.546875	-50.356720
3061.523438	-51.995358
3062.500000	-50.509026
3063.476562	-50.132912
3064.453125	-49.943375
3065.429688	-49.658558
3066.406250	-48.627487
3067.382812	-48.478024
3068.359375	-48.756966
3069.335938	-48.740803
3070.312500	-48.933407
3071.289062	-50.172512
3072.265625	-50.065456
3073.242188	-50.021313
3074.218750	-51.389107
3075.195312	-51.370373
3076.171875	-52.247765
3077.148438	-51.180172
3078.125000	-50.725941
3079.101562	-49.736755
3080.078125	-49.272442
3081.054688	-52.317909
3082.031250	-52.188889
3083.007812	-52.159641
3083.984375	-51.919033
3084.960938	-51.329494
3085.937500	-50.995266
3086.914062	-51.183514
3087.890625	-52.421581
3088.867188	-51.824257
3089.843750	-51.581829
3090.820312	-52.235699
3091.796875	-54.333221
3092.773438	-51.700207
3093.750000	-51.525658
3094.726562	-50.712200
3095.703125	-51.637043
3096.679688	-52.348957
3097.656250	-51.761475
3098.632812	-54.397221
3099.609375	-52.447155
3100.585938	-51.654568
3101.562500	-52.407639
3102.539062	-53.265102
3103.515625	-52.633503
3104.492188	-52.593349
3105.468750	-54.714741
3106.445312	-54.268452
3107.421875	-53.598495
3108.398438	-54.408867
3109.375000	-53.549358
3110.351562	-50.601578
3111.328125	-51.797932
3112.304688	-53.784168
3113.281250	-52.230648
3114.257812	-53.090607
3115.234375	-52.347507
3116.210938	-51.630352
3117.187500	-52.339550
3118.164062	-53.709301
3119.140625	-53.249016
3120.117188	-52.292072
3121.093750	-53.967308
3122.070312	-53.546223
3123.046875	-53.664768
3124.023438	-51.900311
3125.000000	-52.606922
3125.976562	-54.051468
3126.953125	-53.245808
3127.929688	-53.453636
3128.906250	-52.681374
3129.882812	-54.616074
3130.859375	-53.208847
3131.835938	-53.295830
3132.812500	-52.726814
3133.789062	-52.481590
3134.765625	-52.153709
3135.742188	-52.967983
3136.718750	-52.249321
3137.695312	-51.866550
3138.671875	-51.052036
3139.648438	-53.752563
3140.625000	-54.116848
3141.601562	-51.555656
3142.578125	-52.909981
3143.554688	-52.488960
3144.531250	-51.916080
3145.507812	-53.780704
3146.484375	-53.117210
3147.460938	-51.372169
3148.437500	-52.733696
3149.414062	-53.811638
3150.390625	-52.345688
3151.367188	-53.161556
3152.343750	-53.912876
3153.320312	-53.044727
3154.296875	-52.461826
3155.273438	-51.104908
3156.250000	-51.637352
3157.226562	-53.842381
3158.203125	-52.285549
3159.179688	-53.728115
3160.156250	-54.005821
3161.132812	-51.465164
3162.109375	-51.502247
3163.085938	-52.219395
3164.062500	-51.461910
3165.039062	-51.921696
3166.015625	-52.591377
3166.992188	-51.912476
3167.968750	-51.464588
3168.945312	-53.152588
3169.921875	-53.117954
3170.898438	-52.053288
3171.875000	-52.181129
3172.851562	-52.673489
3173.828125	-53.854607
3174.804688	-52.290859
3175.781250	-54.062214
3176.757812	-52.286133
3177.734375	-51.903767
3178.710938	-53.049831
3179.687500	-53.218761
3180.664062	-52.630928
3181.640625	-52.950432
3182.617188	-52.163929
3183.593750	-51.747475
3184.570312	-52.691311
3185.546875	-51.965286
3186.523438	-51.865414
3187.500000	-52.444603
3188.476562	-49.788589
3189.453125	-50.232777
3190.429688	-51.668682
3191.406250	-50.898808
3192.382812	-51.949467
3193.359375	-51.927048
3194.335938	-53.334736
3195.312500	-53.096317
3196.289062	-52.743889
3197.265625	-53.070644
3198.242188	-53.461514
3199.218750	-52.765373
3200.195312	-53.426140
3201.171875	-52.762981
3202.148438	-52.740040
3203.125000	-52.976883
3204.101562	-52.543530
3205.078125	-52.880615
3206.054688	-51.161201
3207.031250	-52.192768
3208.007812	-52.726234
3208.984375	-52.694496
3209.960938	-53.651733
3210.937500	-51.250050
3211.914062	-52.138790
3212.890625	-52.826992
3213.867188	-51.391788
3214.843750	-52.241982
3215.820312	-52.172771
3216.796875	-53.320210
3217.773438	-52.888340
3218.750000	-53.038734
3219.726562	-52.224026
3220.703125	-52.669678
3221.679688	-53.649544
3222.656250	-54.737808
3223.632812	-54.216618
3224.609375	-53.278221
3225.585938	-54.117496
3226.562500	-53.836040
3227.539062	-53.953403
3228.515625	-52.142986
3229.492188	-53.976742
3230.468750	-52.350262
3231.445312	-52.759457
3232.421875	-53.236687
3233.398438	-53.434986
3234.375000	-53.134399
3235.351562	-54.113712
3236.328125	-52.800388
3237.304688	-52.189243
3238.281250	-51.893261
3239.257812	-52.269871
3240.234375	-54.613377
3241.210938	-53.473553
3242.187500	-52.274017
3243.164062	-54.625858
3244.140625	-53.292786
3245.117188	-54.440094
3246.093750	-53.196583
3247.070312	-53.849331
3248.046875	-53.396553
3249.023438	-54.057976
3250.000000	-51.390312
3250.976562	-52.518932
3251.953125	-51.491405
3252.929688	-51.713417
3253.906250	-52.823574
3254.882812	-53.005749
3255.859375	-52.677250
3256.835938	-52.573849
3257.812500	-51.840137
3258.789062	-53.038944
3259.765625	-53.535370
3260.742188	-51.829674
3261.718750	-50.553429
3262.695312	-51.282116
3263.671875	-51.268764
3264.648438	-50.871193
3265.625000	-52.517574
3266.601562	-53.757305
3267.578125	-51.867172
3268.554688	-53.766384
3269.531250	-53.041519
3270.507812	-52.646889
3271.484375	-52.842693
3272.460938	-53.332180
3273.437500	-51.113865
3274.414062	-50.542297
3275.390625	-50.919655
3276.367188	-50.316700
3277.343750	-50.970024
3278.320312	-51.194843
3279.296875	-52.158840
3280.273438	-51.592701
3281.250000	-52.445148
3282.226562	-52.495224
3283.203125	-53.190269
3284.179688	-52.338303
3285.156250	-50.830368
3286.132812	-49.545273
3287.109375	-52.000622
3288.085938	-51.253811
3289.062500	-50.750549
3290.039062	-51.717304
3291.015625	-52.965260
3291.992188	-50.622131
3292.968750	-50.470505
3293.945312	-52.208569
3294.921875	-50.715454
3295.898438	-50.106815
3296.875000	-51.574558
3297.851562	-51.279579
3298.828125	-51.755985
3299.804688	-51.500912
3300.781250	-48.803226
3301.757812	-50.792774
3302.734375	-50.578377
3303.710938	-49.737747
3304.687500	-49.535706
3305.664062	-51.756332
3306.640625	-49.466984
3307.617188	-49.351814
3308.593750	-50.796368
3309.570312	-49.512379
3310.546875	-48.470238
3311.523438	-49.077183
3312.500000	-50.816505
3313.476562	-50.585049
3314.453125	-49.531956
3315.429688	-49.923138
3316.406250	-48.828442
3317.382812	-48.247444
3318.359375	-48.406734
3319.335938	-50.411060
3320.312500	-50.291241
3321.289062	-50.604904
3322.265625	-48.189556
3323.242188	-47.038177
3324.218750	-47.421043
3325.195312	-48.481361
3326.171875	-49.871784
3327.148438	-48.836353
3328.125000	-48.264210
3329.101562	-47.478172
3330.078125	-49.872299
3331.054688	-48.228760
3332.031250	-48.918438
3333.007812	-48.863594
3333.984375	-48.144318
3334.960938	-50.055443
3335.937500	-48.483917
3336.914062	-48.337601
3337.890625	-49.108101
3338.867188	-51.179020
3339.843750	-49.125603
3340.820312	-48.877388
3341.796875	-48.563011
3342.773438	-49.682869
3343.750000	-47.599274
3344.726562	-48.900814
3345.703125	-49.652424
3346.679688	-48.542915
3347.656250	-47.467522
3348.632812	-49.359512
3349.609375	-49.276344
3350.585938	-48.923046
3351.562500	-49.515621
3352.539062	-51.797417
3353.515625	-48.465069
3354.492188	-48.028381
3355.468750	-48.493988
3356.445312	-49.678471
3357.421875	-51.140686
3358.398438	-48.399982
3359.375000	-48.614510
3360.351562	-50.070892
3361.328125	-49.617222
3362.304688	-49.544727
3363.281250	-49.466442
3364.257812	-49.354679
3365.234375	-47.894928
3366.210938	-47.428497
3367.187500	-49.969772
3368.164062	-48.997890
3369.140625	-46.829178
3370.117188	-47.776520
3371.093750	-50.006298
3372.070312	-49.657726
3373.046875	-47.966862
3374.023438	-48.752754
3375.000000	-49.976170
3375.976562	-50.660656
3376.953125	-49.239174
3377.929688	-48.682297
3378.906250	-49.782093
3379.882812	-51.245918
3380.859375	-48.876896
3381.835938	-48.386940
3382.812500	-49.749233
3383.789062	-50.620583
3384.765625	-50.031757
3385.742188	-49.537964
3386.718750	-50.344685
3387.695312	-50.589439
3388.671875	-50.901047
3389.648438	-50.266331
3390.625000	-50.825813
3391.601562	-49.783543
3392.578125	-48.878685
3393.554688	-50.023335
3394.531250	-53.061592
3395.507812	-50.022209
3396.484375	-50.964878
3397.460938	-51.568935
3398.437500	-52.215355
3399.414062	-50.521404
3400.390625	-50.815243
3401.367188	-49.964771
3402.343750	-49.301872
3403.320312	-51.212303
3404.296875	-50.614815
3405.273438	-51.663944
3406.250000	-52.293095
3407.226562	-51.218231
3408.203125	-52.456806
3409.179688	-50.686264
3410.156250	-52.657173
3411.132812	-51.791786
3412.109375	-51.534317
3413.085938	-51.468449
3414.062500	-52.062340
3415.039062	-51.647129
3416.015625	-50.479225
3416.992188	-51.407204
3417.968750	-51.778725
3418.945312	-52.507351
3419.921875	-53.725071
3420.898438	-52.591488
3421.875000	-52.683887
3422.851562	-53.981514
3423.828125	-53.707161
3424.804688	-52.088638
3425.781250	-52.797318
3426.757812	-53.527470
3427.734375	-52.867764
3428.710938	-54.028519
3429.687500	-53.763092
3430.664062	-52.731567
3431.640625	-52.017830
3432.617188	-52.674355
3433.593750	-52.089802
3434.570312	-53.016617
3435.546875	-54.934433
3436.523438	-52.755554
3437.500000	-52.615078
3438.476562	-52.473064
3439.453125	-52.160812
3440.429688	-50.761475
3441.406250	-51.346653
3442.382812	-53.175808
3443.359375	-51.698765
3444.335938	-49.399063
3445.312500	-51.173340
3446.289062	-50.895805
3447.265625	-49.993034
3448.242188	-52.402367
3449.218750	-52.102585
3450.195312	-56.688034
3451.171875	-52.893326
3452.148438	-54.620365
3453.125000	-54.663460
3454.101562	-52.429417
3455.078125	-53.839928
3456.054688	-53.372238
3457.031250	-53.763279
3458.007812	-54.085979
3458.984375	-54.066330
3459.960938	-53.074505
3460.937500	-54.391907
3461.914062	-54.222313
3462.890625	-54.026844
3463.867188	-53.932064
3464.843750	-53.158981
3465.820312	-55.196133
3466.796875	-54.849819
3467.773438	-52.475834
3468.750000	-52.870899
3469.726562	-55.227032
3470.703125	-52.993176
3471.679688	-53.319489
3472.656250	-51.902626
3473.632812	-55.919758
3474.609375	-54.738956
3475.585938	-54.459156
3476.562500	-55.049809
3477.539062	-55.547279
3478.515625	-54.689449
3479.492188	-53.471123
3480.468750	-54.819431
3481.445312	-56.750980
3482.421875	-55.140980
3483.398438	-54.940258
3484.375000	-56.076618
3485.351562	-54.232052
3486.328125	-53.886486
3487.304688	-55.389671
3488.281250	-54.143253
3489.257812	-54.081100
3490.234375	-53.913406
3491.210938	-53.443840
3492.187500	-53.997402
3493.164062	-53.933941
3494.140625	-53.282314
3495.117188	-52.797497
3496.093750	-54.043556
3497.070312	-57.139503
3498.046875	-54.618561
3499.023438	-56.024212
3500.000000	-56.152435
3500.976562	-56.494743
3501.953125	-54.880230
3502.929688	-55.564316
3503.906250	-56.121296
3504.882812	-55.667690
3505.859375	-55.894028
3506.835938	-56.729042
3507.812500	-56.829720
3508.789062	-56.320175
3509.765625	-56.810856
3510.742188	-56.701286
3511.718750	-56.523399
3512.695312	-57.364750
3513.671875	-55.749165
3514.648438	-57.229794
3515.625000	-54.230972
3516.601562	-54.559200
3517.578125	-54.484413
3518.554688	-55.349827
3519.531250	-55.600456
3520.507812	-54.690849
3521.484375	-56.790966
3522.460938	-56.210453
3523.437500	-56.796963
3524.414062	-57.823208
3525.390625	-58.684837
3526.367188	-57.458347
3527.343750	-55.976299
3528.320312	-55.379311
3529.296875	-56.666031
3530.273438	-57.704857
3531.250000	-57.033333
3532.226562	-56.175674
3533.203125	-56.429779
3534.179688	-56.449154
3535.156250	-57.144402
3536.132812	-58.117294
3537.109375	-57.856133
3538.085938	-55.825146
3539.062500	-55.797600
3540.039062	-57.443184
3541.015625	-55.931358
3541.992188	-56.400021
3542.968750	-54.450397
3543.945312	-56.342018
3544.921875	-57.301640
3545.898438	-57.264732
3546.875000	-57.443771
3547.851562	-58.057579
3548.828125	-57.514812
3549.804688	-57.601105
3550.781250	-56.546734
3551.757812	-56.680435
3552.734375	-56.145355
3553.710938	-57.339176
3554.687500	-56.079975
3555.664062	-57.318169
3556.640625	-56.891277
3557.617188	-57.178936
3558.593750	-57.359264
3559.570312	-58.217052
3560.546875	-57.570316
3561.523438	-57.573486
3562.500000	-56.800533
3563.476562	-56.849621
3564.453125	-56.697914
3565.429688	-56.283825
3566.406250	-57.993855
3567.382812	-58.277248
3568.359375	-57.515663
3569.335938	-57.236782
3570.312500	-57.901096
3571.289062	-58.073002
3572.265625	-56.497917
3573.242188	-57.138119
3574.218750	-57.241089
3575.195312	-58.160801
3576.171875	-57.515041
3577.148438	-56.552357
3578.125000	-57.765274
3579.101562	-58.113342
3580.078125	-56.973782
3581.054688	-56.667854
3582.031250	-56.689636
3583.007812	-56.512161
3583.984375	-59.063091
3584.960938	-58.378002
3585.937500	-57.103096
3586.914062	-58.678562
3587.890625	-60.014130
3588.867188	-57.646961
3589.843750	-55.491241
3590.820312	-57.947456
3591.796875	-57.080757
3592.773438	-57.734554
3593.750000	-57.407043
3594.726562	-58.505337
3595.703125	-57.234848
3596.679688	-56.607693
3597.656250	-57.794029
3598.632812	-58.722553
3599.609375	-58.592407
3600.585938	-57.426174
3601.562500	-59.236530
3602.539062	-57.799175
3603.515625	-57.361736
3604.492188	-57.230408
3605.468750	-58.820698
3606.445312	-57.891983
3607.421875	-58.216724
3608.398438	-57.100994
3609.375000	-57.614830
3610.351562	-58.866810
3611.328125	-58.261776
3612.304688	-58.006096
3613.281250	-57.506454
3614.257812	-56.929504
3615.234375	-58.456764
3616.210938	-58.694859
3617.187500	-57.362888
3618.164062	-58.534428
3619.140625	-59.453915
3620.117188	-57.574657
3621.093750	-57.906372
3622.070312	-58.820686
3623.046875	-57.936764
3624.023438	-60.818600
3625.000000	-58.046616
3625.976562	-59.973866
3626.953125	-57.428791
3627.929688	-56.573246
3628.906250	-57.987320
3629.882812	-59.312393
3630.859375	-59.071033
3631.835938	-58.123924
3632.812500	-58.325909
3633.789062	-57.997860
3634.765625	-59.269573
3635.742188	-59.466846
3636.718750	-57.774769
3637.695312	-58.726231
3638.671875	-57.842793
3639.648438	-58.249447
3640.625000	-56.942753
3641.601562	-58.197620
3642.578125	-59.535778
3643.554688	-59.016956
3644.531250	-57.258892
3645.507812	-59.792736
3646.484375	-58.495651
3647.460938	-59.652122
3648.437500	-59.160957
3649.414062	-60.078247
3650.390625	-59.982883
3651.367188	-58.442226
3652.343750	-56.690746
3653.320312	-58.854015
3654.296875	-60.098301
3655.273438	-60.164021
3656.250000	-60.120750
3657.226562	-61.476952
3658.203125	-61.139248
3659.179688	-58.914780
3660.156250	-58.889534
3661.132812	-59.785576
3662.109375	-59.305820
3663.085938	-58.599964
3664.062500	-58.639679
3665.039062	-57.775349
3666.015625	-58.414089
3666.992188	-58.390442
3667.968750	-59.516605
3668.945312	-60.535175
3669.921875	-58.661705
3670.898438	-58.807709
3671.875000	-58.627419
3672.851562	-59.808208
3673.828125	-59.486023
3674.804688	-57.777039
3675.781250	-59.523808
3676.757812	-58.879810
3677.734375	-58.776058
3678.710938	-60.317127
3679.687500	-59.765305
3680.664062	-60.078972
3681.640625	-59.038551
3682.617188	-59.571827
3683.593750	-59.844814
3684.570312	-58.264462
3685.546875	-59.710209
3686.523438	-59.767845
3687.500000	-59.367809
3688.476562	-58.380100
3689.453125	-58.715874
3690.429688	-58.140850
3691.406250	-58.821133
3692.382812	-59.072536
3693.359375	-59.521366
3694.335938	-60.211407
3695.312500	-59.346725
3696.289062	-58.280949
3697.265625	-58.757973
3698.242188	-59.351883
3699.218750	-59.715572
3700.195312	-58.883301
3701.171875	-59.393673
3702.148438	-60.067722
3703.125000	-59.359749
3704.101562	-59.854691
3705.078125	-60.469105
3706.054688	-58.423912
3707.031250	-58.430943
3708.007812	-58.655334
3708.984375	-58.728310
3709.960938	-57.614582
3710.937500	-59.329079
3711.914062	-58.171337
3712.890625	-58.080791
3713.867188	-58.874203
3714.843750	-60.018639
3715.820312	-59.127705
3716.796875	-59.712910
3717.773438	-60.334648
3718.750000	-59.098793
3719.726562	-59.158413
3720.703125	-59.928181
3721.679688	-59.651257
3722.656250	-59.079582
3723.632812	-59.280354
3724.609375	-59.033943
3725.585938	-58.298073
3726.562500	-59.739166
3727.539062	-59.826973
3728.515625	-59.737915
3729.492188	-59.282372
3730.468750	-59.124012
3731.445312	-60.557304
3732.421875	-59.962212
3733.398438	-58.661667
3734.375000	-57.366318
3735.351562	-58.363979
3736.328125	-58.312511
3737.304688	-58.213497
3738.281250	-60.662956
3739.257812	-60.849194
3740.234375	-60.420376
3741.210938	-58.892338
3742.187500	-59.579086
3743.164062	-59.318100
3744.140625	-59.815872
3745.117188	-58.331718
3746.093750	-59.770462
3747.070312	-57.589165
3748.046875	-58.120113
3749.023438	-60.250797
3750.000000	-59.433971
3750.976562	-61.292553
3751.953125	-59.204872
3752.929688	-58.898502
3753.906250	-57.563332
3754.882812	-57.581657
3755.859375	-59.116608
3756.835938	-58.026207
3757.812500	-58.255501
3758.789062	-58.486938
3759.765625	-59.305859
3760.742188	-59.432198
3761.718750	-58.255905
3762.695312	-59.449722
3763.671875	-59.415028
3764.648438	-59.397121
3765.625000	-57.875874
3766.601562	-58.243916
3767.578125	-59.085415
3768.554688	-59.609447
3769.531250	-59.473282
3770.507812	-58.602367
3771.484375	-58.103474
3772.460938	-59.417030
3773.437500	-59.837059
3774.414062	-60.245403
3775.390625	-60.839676
3776.367188	-59.642586
3777.343750	-58.354729
3778.320312	-57.410904
3779.296875	-58.595242
3780.273438	-57.684315
3781.250000	-56.783619
3782.226562	-59.075897
3783.203125	-59.560741
3784.179688	-58.820347
3785.156250	-58.432747
3786.132812	-58.624195
3787.109375	-58.678024
3788.085938	-57.531715
3789.062500	-58.302227
3790.039062	-58.522453
3791.015625	-59.047379
3791.992188	-59.110016
3792.968750	-59.395554
3793.945312	-59.051609
3794.921875	-58.423405
3795.898438	-60.165913
3796.875000	-59.240646
3797.851562	-56.817024
3798.828125	-56.917377
3799.804688	-58.256241
3800.781250	-58.754421
3801.757812	-58.414154
3802.734375	-57.708855
3803.710938	-59.098427
3804.687500	-58.379066
3805.664062	-58.595749
3806.640625	-58.518154
3807.617188	-58.483204
3808.593750	-58.521713
3809.570312	-58.668865
3810.546875	-59.378319
3811.523438	-59.310143
3812.500000	-59.223343
3813.476562	-59.863701
3814.453125	-59.767170
3815.429688	-59.048817
3816.406250	-57.886593
3817.382812	-57.370125
3818.359375	-59.128391
3819.335938	-58.710403
3820.312500	-57.824371
3821.289062	-57.363380
3822.265625	-58.983780
3823.242188	-57.922966
3824.218750	-58.529781
3825.195312	-59.683243
3826.171875	-59.576488
3827.148438	-58.147694
3828.125000	-57.229046
3829.101562	-57.694920
3830.078125	-59.323109
3831.054688	-57.105606
3832.031250	-56.675121
3833.007812	-58.695805
3833.984375	-58.319180
3834.960938	-58.493080
3835.937500	-57.236004
3836.914062	-59.038624
3837.890625	-58.464081
3838.867188	-58.229321
3839.843750	-57.876278
3840.820312	-58.588219
3841.796875	-59.925301
3842.773438	-58.253143
3843.750000	-57.477165
3844.726562	-57.075054
3845.703125	-56.382240
3846.679688	-59.884655
3847.656250	-58.953125
3848.632812	-58.659351
3849.609375	-59.015179
3850.585938	-57.725773
3851.562500	-57.986702
3852.539062	-57.888500
3853.515625	-56.675182
3854.492188	-57.506733
3855.468750	-58.929211
3856.445312	-57.563141
3857.421875	-58.572018
3858.398438	-58.228016
3859.375000	-57.894901
3860.351562	-56.238914
3861.328125	-58.323048
3862.304688	-57.721123
3863.281250	-56.108887
3864.257812	-58.144218
3865.234375	-58.610397
3866.210938	-56.810993
3867.187500	-56.880558
3868.164062	-58.556961
3869.140625	-58.914757
3870.117188	-56.375237
3871.093750	-57.481049
3872.070312	-58.922066
3873.046875	-57.994011
3874.023438	-58.636749
3875.000000	-57.098160
3875.976562	-58.638393
3876.953125	-57.768532
3877.929688	-57.341637
3878.906250	-59.482735
3879.882812	-59.206455
3880.859375	-58.570889
3881.835938	-58.343491
3882.812500	-59.131958
3883.789062	-61.705620
3884.765625	-59.116951
3885.742188	-58.579098
3886.718750	-58.356140
3887.695312	-58.620110
3888.671875	-57.482647
3889.648438	-58.335560
3890.625000	-57.667660
3891.601562	-59.595356
3892.578125	-58.358471
3893.554688	-58.684849
3894.531250	-58.940838
3895.507812	-57.906334
3896.484375	-58.313049
3897.460938	-57.305511
3898.437500	-58.278637
3899.414062	-59.046921
3900.390625	-58.018219
3901.367188	-59.085598
3902.343750	-59.784775
3903.320312	-57.545883
3904.296875	-58.048832
3905.273438	-60.036263
3906.250000	-60.544567
3907.226562	-59.669220
3908.203125	-59.847553
3909.179688	-59.914543
3910.156250	-58.674358
3911.132812	-58.797466
3912.109375	-58.962376
3913.085938	-59.077469
3914.062500	-58.863689
3915.039062	-60.438873
3916.015625	-58.166035
3916.992188	-58.346336
3917.968750	-59.227493
3918.945312	-58.567760
3919.921875	-59.824165
3920.898438	-56.797745
3921.875000	-58.974308
3922.851562	-58.257690
3923.828125	-58.672768
3924.804688	-60.331493
3925.781250	-60.415943
3926.757812	-59.905186
3927.734375	-61.174755
3928.710938	-60.215027
3929.687500	-60.622078
3930.664062	-59.914360
3931.640625	-59.821793
3932.617188	-58.910412
3933.593750	-59.119274
3934.570312	-58.839901
3935.546875	-59.570137
3936.523438	-60.445709
3937.500000	-60.275997
3938.476562	-59.019016
3939.453125	-59.666241
3940.429688	-59.209553
3941.406250	-61.006336
3942.382812	-57.149723
3943.359375	-57.090420
3944.335938	-59.298599
3945.312500	-59.444290
3946.289062	-57.606895
3947.265625	-58.687000
3948.242188	-60.614174
3949.218750	-60.074341
3950.195312	-59.899719
3951.171875	-60.677036
3952.148438	-60.683559
3953.125000	-59.709484
3954.101562	-60.423027
3955.078125	-60.733307
3956.054688	-60.088051
3957.031250	-59.757057
3958.007812	-60.099369
3958.984375	-61.308670
3959.960938	-60.318489
3960.937500	-60.887943
3961.914062	-60.770752
3962.890625	-61.443813
3963.867188	-60.145206
3964.843750	-59.374767
3965.820312	-60.940186
3966.796875	-59.731216
3967.773438	-60.435440
3968.750000	-61.106052
3969.726562	-60.136028
3970.703125	-61.772980
3971.679688	-60.197121
3972.656250	-61.457642
3973.632812	-62.010807
3974.609375	-60.534527
3975.585938	-59.842270
3976.562500	-59.319866
3977.539062	-60.448780
3978.515625	-60.217621
3979.492188	-62.415108
3980.468750	-60.473347
3981.445312	-60.820507
3982.421875	-61.353031
3983.398438	-59.924129
3984.375000	-61.177208
3985.351562	-61.906860
3986.328125	-60.409462
3987.304688	-60.702629
3988.281250	-60.236851
3989.257812	-60.887104
3990.234375	-60.681118
3991.210938	-61.371826
3992.187500	-60.809059
3993.164062	-61.259918
3994.140625	-61.902760
3995.117188	-62.270359
3996.093750	-61.183277
3997.070312	-60.221165
3998.046875	-60.566841
3999.023438	-60.458786
4000.000000	-61.245941
4000.976562	-60.830551
4001.953125	-61.905556
4002.929688	-61.872761
4003.906250	-62.225079
4004.882812	-60.901096
4005.859375	-61.675751
4006.835938	-60.518913
4007.812500	-61.471153
4008.789062	-61.912266
4009.765625	-61.617638
4010.742188	-59.824139
4011.718750	-59.218330
4012.695312	-60.852482
4013.671875	-61.105217
4014.648438	-61.710518
4015.625000	-61.309357
4016.601562	-61.985130
4017.578125	-62.159180
4018.554688	-61.935642
4019.531250	-61.484642
4020.507812	-61.728737
4021.484375	-60.948475
4022.460938	-61.580521
4023.437500	-61.466106
4024.414062	-61.412975
4025.390625	-62.502922
4026.367188	-61.182442
4027.343750	-61.984623
4028.320312	-61.685207
4029.296875	-61.797535
4030.273438	-61.156425
4031.250000	-62.474892
4032.226562	-61.339817
4033.203125	-60.069378
4034.179688	-61.375763
4035.156250	-60.649330
4036.132812	-59.446545
4037.109375	-60.211300
4038.085938	-61.777260
4039.062500	-61.909756
4040.039062	-62.198418
4041.015625	-61.149734
4041.992188	-61.816296
4042.968750	-62.254841
4043.945312	-61.209141
4044.921875	-61.728912
4045.898438	-61.462719
4046.875000	-60.952572
4047.851562	-60.735294
4048.828125	-61.159344
4049.804688	-61.207443
4050.781250	-60.575943
4051.757812	-61.740231
4052.734375	-62.800621
4053.710938	-60.795319
4054.687500	-61.970245
4055.664062	-60.828880
4056.640625	-61.372070
4057.617188	-60.108562
4058.593750	-61.299088
4059.570312	-60.071865
4060.546875	-62.400879
4061.523438	-60.389786
4062.500000	-61.345585
4063.476562	-62.476227
4064.453125	-61.049911
4065.429688	-60.769463
4066.406250	-62.876484
4067.382812	-60.615170
4068.359375	-62.532036
4069.335938	-61.701962
4070.312500	-60.315605
4071.289062	-61.295975
4072.265625	-61.669872
4073.242188	-60.455151
4074.218750	-61.510715
4075.195312	-61.660477
4076.171875	-60.812248
4077.148438	-59.913986
4078.125000	-62.723476
4079.101562	-62.062252
4080.078125	-59.397491
4081.054688	-60.376358
4082.031250	-59.759209
4083.007812	-61.152939
4083.984375	-61.130192
4084.960938	-60.795193
4085.937500	-63.257774
4086.914062	-62.839363
4087.890625	-61.712551
4088.867188	-62.459690
4089.843750	-61.257538
4090.820312	-61.896545
4091.796875	-60.708050
4092.773438	-60.280823
4093.750000	-60.615349
4094.726562	-61.841244
4095.703125	-61.516830
4096.679688	-62.556450
4097.656250	-61.682747
4098.632812	-61.378548
4099.609375	-62.213963
4100.585938	-60.756283
4101.562500	-59.991859
4102.539062	-61.058704
4103.515625	-60.773598
4104.492188	-62.013184
4105.468750	-61.999760
4106.445312	-62.847519
4107.421875	-61.858837
4108.398438	-62.282791
4109.375000	-62.258919
4110.351562	-62.423603
4111.328125	-60.919800
4112.304688	-60.382565
4113.281250	-63.139225
4114.257812	-61.383595
4115.234375	-62.506714
4116.210938	-62.814766
4117.187500	-60.971565
4118.164062	-61.708096
4119.140625	-62.397732
4120.117188	-61.175949
4121.093750	-61.416527
4122.070312	-62.006168
4123.046875	-61.210953
4124.023438	-60.957928
4125.000000	-61.403675
4125.976562	-60.943901
4126.953125	-63.134079
4127.929688	-62.310249
4128.906250	-62.319702
4129.882812	-63.627827
4130.859375	-61.298748
4131.835938	-63.169369
4132.812500	-60.750450
4133.789062	-60.241943
4134.765625	-60.939190
4135.742188	-61.131371
4136.718750	-61.255199
4137.695312	-60.331715
4138.671875	-62.480297
4139.648438	-62.331604
4140.625000	-61.985195
4141.601562	-61.824272
4142.578125	-62.733326
4143.554688	-62.901802
4144.531250	-61.612873
4145.507812	-61.300720
4146.484375	-62.484516
4147.460938	-62.192600
4148.437500	-62.314758
4149.414062	-62.438450
4150.390625	-61.878586
4151.367188	-62.815750
4152.343750	-61.725922
4153.320312	-62.800659
4154.296875	-62.791969
4155.273438	-61.296665
4156.250000	-62.172897
4157.226562	-62.178883
4158.203125	-60.884689
4159.179688	-62.119255
4160.156250	-62.294262
4161.132812	-63.437878
4162.109375	-62.071461
4163.085938	-60.879707
4164.062500	-61.652756
4165.039062	-62.519249
4166.015625	-62.051083
4166.992188	-61.952370
4167.968750	-61.860474
4168.945312	-62.882526
4169.921875	-61.861748
4170.898438	-61.684868
4171.875000	-61.881756
4172.851562	-61.879726
4173.828125	-61.908485
4174.804688	-62.258572
4175.781250	-62.200264
4176.757812	-61.959053
4177.734375	-62.335835
4178.710938	-61.024406
4179.687500	-60.893059
4180.664062	-61.892735
4181.640625	-61.523167
4182.617188	-61.239719
4183.593750	-62.996712
4184.570312	-61.560890
4185.546875	-61.756611
4186.523438	-61.050354
4187.500000	-61.371052
4188.476562	-61.364403
4189.453125	-60.951664
4190.429688	-61.452213
4191.406250	-64.304390
4192.382812	-62.867409
4193.359375	-62.619469
4194.335938	-62.400757
4195.312500	-62.749855
4196.289062	-62.693008
4197.265625	-61.323570
4198.242188	-62.254559
4199.218750	-62.862740
4200.195312	-61.518959
4201.171875	-60.828274
4202.148438	-61.170296
4203.125000	-61.248714
4204.101562	-62.699844
4205.078125	-61.740376
4206.054688	-62.795868
4207.031250	-63.563137
4208.007812	-62.484688
4208.984375	-62.771339
4209.960938	-63.590061
4210.937500	-63.384121
4211.914062	-62.576195
4212.890625	-60.800030
4213.867188	-62.348049
4214.843750	-63.035866
4215.820312	-63.789364
4216.796875	-62.407139
4217.773438	-62.101482
4218.750000	-62.545635
4219.726562	-62.837917
4220.703125	-61.515167
4221.679688	-62.877831
4222.656250	-62.687614
4223.632812	-60.492672
4224.609375	-61.514389
4225.585938	-61.666523
4226.562500	-61.217262
4227.539062	-63.484436
4228.515625	-62.888874
4229.492188	-61.228214
4230.468750	-62.859867
4231.445312	-62.772663
4232.421875	-62.390728
4233.398438	-62.047939
4234.375000	-63.082298
4235.351562	-61.246178
4236.328125	-62.169853
4237.304688	-62.568104
4238.281250	-63.178810
4239.257812	-62.851456
4240.234375	-61.202583
4241.210938	-61.598129
4242.187500	-62.203938
4243.164062	-62.287533
4244.140625	-62.149239
4245.117188	-63.358475
4246.093750	-62.555943
4247.070312	-61.065403
4248.046875	-62.232021
4249.023438	-61.881760
4250.000000	-61.394939
4250.976562	-62.929878
4251.953125	-62.281151
4252.929688	-62.413898
4253.906250	-62.239006
4254.882812	-61.288967
4255.859375	-61.723263
4256.835938	-61.833317
4257.812500	-62.521488
4258.789062	-63.445385
4259.765625	-62.100090
4260.742188	-61.993744
4261.718750	-61.266689
4262.695312	-62.192478
4263.671875	-61.958797
4264.648438	-62.740730
4265.625000	-62.911861
4266.601562	-63.545116
4267.578125	-61.742878
4268.554688	-61.690880
4269.531250	-60.084469
4270.507812	-61.942348
4271.484375	-60.997128
4272.460938	-61.558784
4273.437500	-61.862366
4274.414062	-61.010231
4275.390625	-61.279495
4276.367188	-62.818176
4277.343750	-61.762379
4278.320312	-62.696022
4279.296875	-61.261509
4280.273438	-62.048824
4281.250000	-62.418446
4282.226562	-62.832306
4283.203125	-61.071236
4284.179688	-62.204922
4285.156250	-59.800240
4286.132812	-62.532082
4287.109375	-61.235901
4288.085938	-62.644413
4289.062500	-62.310974
4290.039062	-61.261147
4291.015625	-60.670837
4291.992188	-62.581177
4292.968750	-61.192192
4293.945312	-61.577278
4294.921875	-62.201885
4295.898438	-62.311829
4296.875000	-61.148327
4297.851562	-63.645367
4298.828125	-64.096741
4299.804688	-62.007984
4300.781250	-60.268078
4301.757812	-61.315357
4302.734375	-61.199749
4303.710938	-60.761345
4304.687500	-60.026035
4305.664062	-62.000427
4306.640625	-63.124355
4307.617188	-61.912750
4308.593750	-60.322750
4309.570312	-61.475426
4310.546875	-61.986721
4311.523438	-62.207458
4312.500000	-61.169529
4313.476562	-62.875526
4314.453125	-62.010410
4315.429688	-60.832550
4316.406250	-60.318813
4317.382812	-61.010258
4318.359375	-60.136421
4319.335938	-59.812359
4320.312500	-62.389076
4321.289062	-62.213226
4322.265625	-61.518444
4323.242188	-60.972603
4324.218750	-63.165836
4325.195312	-62.862423
4326.171875	-62.940735
4327.148438	-60.667278
4328.125000	-63.364170
4329.101562	-61.435463
4330.078125	-60.101089
4331.054688	-60.875492
4332.031250	-60.509457
4333.007812	-60.833183
4333.984375	-60.826481
4334.960938	-62.228779
4335.937500	-62.069141
4336.914062	-60.980728
4337.890625	-61.530067
4338.867188	-61.333897
4339.843750	-61.941154
4340.820312	-59.463715
4341.796875	-60.060688
4342.773438	-61.066078
4343.750000	-61.684246
4344.726562	-61.631950
4345.703125	-61.583401
4346.679688	-60.719292
4347.656250	-61.865887
4348.632812	-61.171490
4349.609375	-61.376514
4350.585938	-62.565517
4351.562500	-61.081814
4352.539062	-61.704052
4353.515625	-61.254848
4354.492188	-60.379887
4355.468750	-61.457306
4356.445312	-59.779373
4357.421875	-62.340057
4358.398438	-60.477562
4359.375000	-60.916340
4360.351562	-60.343094
4361.328125	-61.955429
4362.304688	-62.229881
4363.281250	-61.248203
4364.257812	-61.409805
4365.234375	-62.766235
4366.210938	-61.276775
4367.187500	-60.333652
4368.164062	-59.010651
4369.140625	-59.881420
4370.117188	-61.896690
4371.093750	-59.774605
4372.070312	-60.296753
4373.046875	-61.311630
4374.023438	-61.453110
4375.000000	-60.685925
4375.976562	-59.400257
4376.953125	-59.249687
4377.929688	-61.544998
4378.906250	-61.465012
4379.882812	-60.635544
4380.859375	-62.211712
4381.835938	-60.502068
4382.812500	-59.068058
4383.789062	-61.587654
4384.765625	-60.185459
4385.742188	-60.906013
4386.718750	-61.765034
4387.695312	-61.781769
4388.671875	-60.469879
4389.648438	-59.374168
4390.625000	-59.558674
4391.601562	-61.015182
4392.578125	-60.366577
4393.554688	-61.285858
4394.531250	-60.545441
4395.507812	-59.758495
4396.484375	-59.256443
4397.460938	-59.176647
4398.437500	-60.187489
4399.414062	-59.396820
4400.390625	-58.077328
4401.367188	-59.072525
4402.343750	-60.684002
4403.320312	-60.787769
4404.296875	-60.428223
4405.273438	-59.731449
4406.250000	-61.522320
4407.226562	-59.637352
4408.203125	-59.438450
4409.179688	-60.117630
4410.156250	-58.894054
4411.132812	-60.025173
4412.109375	-60.486538
4413.085938	-60.582340
4414.062500	-59.018959
4415.039062	-61.170460
4416.015625	-61.300861
4416.992188	-61.445889
4417.968750	-60.828079
4418.945312	-61.267941
4419.921875	-61.048008
4420.898438	-59.297421
4421.875000	-58.546364
4422.851562	-59.233463
4423.828125	-59.970161
4424.804688	-59.752312
4425.781250	-59.483257
4426.757812	-61.080242
4427.734375	-60.573616
4428.710938	-61.444809
4429.687500	-58.940327
4430.664062	-58.355640
4431.640625	-59.875206
4432.617188	-60.173439
4433.593750	-59.720112
4434.570312	-59.688324
4435.546875	-60.185440
4436.523438	-58.494492
4437.500000	-58.996075
4438.476562	-60.279835
4439.453125	-59.375843
4440.429688	-59.104591
4441.406250	-61.269012
4442.382812	-59.927780
4443.359375	-60.099308
4444.335938	-59.684860
4445.312500	-59.431728
4446.289062	-58.396507
4447.265625	-60.279213
4448.242188	-60.842663
4449.218750	-60.065716
4450.195312	-59.941425
4451.171875	-59.861969
4452.148438	-59.698521
4453.125000	-59.863033
4454.101562	-60.624565
4455.078125	-59.824814
4456.054688	-60.208427
4457.031250	-59.353107
4458.007812	-59.859219
4458.984375	-59.395691
4459.960938	-60.721745
4460.937500	-59.820835
4461.914062	-58.389263
4462.890625	-58.202568
4463.867188	-58.529919
4464.843750	-58.961399
4465.820312	-59.168678
4466.796875	-59.354477
4467.773438	-59.480400
4468.750000	-59.202118
4469.726562	-58.816750
4470.703125	-58.344719
4471.679688	-60.126728
4472.656250	-59.836811
4473.632812	-59.940762
4474.609375	-60.218563
4475.585938	-59.884705
4476.562500	-60.316734
4477.539062	-59.884911
4478.515625	-59.807865
4479.492188	-60.375523
4480.468750	-59.840553
4481.445312	-59.018398
4482.421875	-59.865612
4483.398438	-59.663208
4484.375000	-58.071972
4485.351562	-57.936501
4486.328125	-58.656757
4487.304688	-57.980694
4488.281250	-60.568069
4489.257812	-59.009560
4490.234375	-59.474899
4491.210938	-59.794079
4492.187500	-60.534554
4493.164062	-59.785908
4494.140625	-58.638115
4495.117188	-60.218151
4496.093750	-59.688377
4497.070312	-59.031929
4498.046875	-59.240074
4499.023438	-59.253265
4500.000000	-60.020027
4500.976562	-58.732124
4501.953125	-59.978348
4502.929688	-58.190006
4503.906250	-58.385025
4504.882812	-59.656616
4505.859375	-59.455177
4506.835938	-59.069439
4507.812500	-60.848656
4508.789062	-58.692162
4509.765625	-58.381233
4510.742188	-58.961319
4511.718750	-59.411472
4512.695312	-59.441521
4513.671875	-60.188923
4514.648438	-59.567764
4515.625000	-60.261284
4516.601562	-60.104115
4517.578125	-60.417522
4518.554688	-58.417931
4519.531250	-60.143005
4520.507812	-60.231197
4521.484375	-58.595264
4522.460938	-59.410580
4523.437500	-58.520775
4524.414062	-58.887566
4525.390625	-59.498806
4526.367188	-59.200638
4527.343750	-58.833988
4528.320312	-59.658012
4529.296875	-59.044022
4530.273438	-60.226490
4531.250000	-58.851280
4532.226562	-58.612339
4533.203125	-59.336971
4534.179688	-60.230782
4535.156250	-59.336128
4536.132812	-59.822624
4537.109375	-59.992027
4538.085938	-61.654842
4539.062500	-59.386475
4540.039062	-59.295883
4541.015625	-59.843906
4541.992188	-58.631481
4542.968750	-60.484440
4543.945312	-60.913300
4544.921875	-59.427788
4545.898438	-59.058624
4546.875000	-58.979485
4547.851562	-57.717365
4548.828125	-58.344776
4549.804688	-59.382301
4550.781250	-59.759991
4551.757812	-59.479675
4552.734375	-60.125118
4553.710938	-60.857964
4554.687500	-59.871933
4555.664062	-59.737183
4556.640625	-61.331802
4557.617188	-60.320004
4558.593750	-59.642357
4559.570312	-59.022720
4560.546875	-60.022659
4561.523438	-59.167988
4562.500000	-57.432491
4563.476562	-58.265232
4564.453125	-59.905766
4565.429688	-59.758999
4566.406250	-59.241016
4567.382812	-59.092056
4568.359375	-59.734447
4569.335938	-58.945358
4570.312500	-59.171711
4571.289062	-60.768059
4572.265625	-60.694672
4573.242188	-60.982231
4574.218750	-60.488239
4575.195312	-59.581234
4576.171875	-58.184544
4577.148438	-59.734291
4578.125000	-60.452854
4579.101562	-60.772224
4580.078125	-59.515003
4581.054688	-60.250553
4582.031250	-59.069439
4583.007812	-59.727776
4583.984375	-59.203617
4584.960938	-59.048412
4585.937500	-60.196640
4586.914062	-60.565147
4587.890625	-61.107235
4588.867188	-58.102520
4589.843750	-58.259968
4590.820312	-60.214794
4591.796875	-57.797676
4592.773438	-61.578094
4593.750000	-61.157532
4594.726562	-59.339798
4595.703125	-60.184887
4596.679688	-61.562340
4597.656250	-61.370438
4598.632812	-58.607765
4599.609375	-60.726254
4600.585938	-60.239372
4601.562500	-60.567005
4602.539062	-60.960979
4603.515625	-59.287323
4604.492188	-60.917439
4605.468750	-58.811432
4606.445312	-60.042889
4607.421875	-59.359924
4608.398438	-60.335407
4609.375000	-59.366688
4610.351562	-59.830307
4611.328125	-60.088833
4612.304688	-60.065018
4613.281250	-60.958557
4614.257812	-60.330723
4615.234375	-59.656933
4616.210938	-61.328541
4617.187500	-61.754036
4618.164062	-60.837109
4619.140625	-60.699600
4620.117188	-60.216766
4621.093750	-59.943035
4622.070312	-59.805393
4623.046875	-59.549423
4624.023438	-60.558632
4625.000000	-60.418179
4625.976562	-58.766697
4626.953125	-58.840042
4627.929688	-59.854790
4628.906250	-61.074303
4629.882812	-60.080730
4630.859375	-61.081612
4631.835938	-61.412296
4632.812500	-61.649029
4633.789062	-60.438633
4634.765625	-60.334927
4635.742188	-61.198597
4636.718750	-60.918411
4637.695312	-60.414501
4638.671875	-59.279148
4639.648438	-59.948883
4640.625000	-59.314007
4641.601562	-59.187740
4642.578125	-61.431858
4643.554688	-61.833755
4644.531250	-61.316311
4645.507812	-61.176247
4646.484375	-61.250549
4647.460938	-61.378040
4648.437500	-60.870079
4649.414062	-59.981342
4650.390625	-59.864674
4651.367188	-60.413906
4652.343750	-60.370472
4653.320312	-61.841766
4654.296875	-59.866592
4655.273438	-60.694241
4656.250000	-60.732693
4657.226562	-61.232883
4658.203125	-61.487347
4659.179688	-61.072166
4660.156250	-61.204601
4661.132812	-61.937443
4662.109375	-61.934902
4663.085938	-60.671364
4664.062500	-61.896000
4665.039062	-60.298958
4666.015625	-60.418438
4666.992188	-61.276943
4667.968750	-60.922638
4668.945312	-59.575882
4669.921875	-59.359852
4670.898438	-60.874584
4671.875000	-61.968128
4672.851562	-62.186123
4673.828125	-63.047153
4674.804688	-61.232090
4675.781250	-62.261349
4676.757812	-61.912010
4677.734375	-62.059551
4678.710938	-61.588245
4679.687500	-61.940590
4680.664062	-60.714661
4681.640625	-61.888081
4682.617188	-62.316357
4683.593750	-60.120930
4684.570312	-60.978046
4685.546875	-60.531033
4686.523438	-59.859772
4687.500000	-61.143345
4688.476562	-61.612816
4689.453125	-62.250378
4690.429688	-62.070675
4691.406250	-62.350872
4692.382812	-61.550137
4693.359375	-61.452263
4694.335938	-61.553375
4695.312500	-61.801266
4696.289062	-61.491306
4697.265625	-61.817669
4698.242188	-61.592442
4699.218750	-61.413616
4700.195312	-60.383892
4701.171875	-60.042614
4702.148438	-59.407627
4703.125000	-60.412739
4704.101562	-61.993385
4705.078125	-61.829857
4706.054688	-61.791374
4707.031250	-61.599697
4708.007812	-61.743496
4708.984375	-61.684418
4709.960938	-61.043091
4710.937500	-61.669880
4711.914062	-61.363342
4712.890625	-61.172955
4713.867188	-61.260197
4714.843750	-61.463276
4715.820312	-62.376385
4716.796875	-60.758717
4717.773438	-61.251583
4718.750000	-61.664307
4719.726562	-61.311325
4720.703125	-61.754791
4721.679688	-62.236282
4722.656250	-62.506535
4723.632812	-63.164692
4724.609375	-61.708973
4725.585938	-61.343227
4726.562500	-61.745342
4727.539062	-61.572216
4728.515625	-61.287231
4729.492188	-61.986607
4730.468750	-61.213902
4731.445312	-60.488239
4732.421875	-60.666836
4733.398438	-61.032551
4734.375000	-61.892990
4735.351562	-62.802578
4736.328125	-63.243965
4737.304688	-61.641273
4738.281250	-62.395340
4739.257812	-60.875080
4740.234375	-61.863815
4741.210938	-62.606758
4742.187500	-63.158070
4743.164062	-62.228767
4744.140625	-62.100494
4745.117188	-60.347015
4746.093750	-61.633003
4747.070312	-61.527008
4748.046875	-62.186852
4749.023438	-61.781120
4750.000000	-61.833069
4750.976562	-61.263428
4751.953125	-60.793743
4752.929688	-61.639126
4753.906250	-60.960945
4754.882812	-62.172390
4755.859375	-61.737946
4756.835938	-61.479427
4757.812500	-61.860184
4758.789062	-61.671928
4759.765625	-62.239395
4760.742188	-61.818722
4761.718750	-62.543839
4762.695312	-62.743610
4763.671875	-62.167774
4764.648438	-61.258751
4765.625000	-61.131950
4766.601562	-60.038391
4767.578125	-62.166035
4768.554688	-62.216408
4769.531250	-62.608803
4770.507812	-61.588680
4771.484375	-61.918686
4772.460938	-61.151741
4773.437500	-60.732384
4774.414062	-61.129341
4775.390625	-60.533634
4776.367188	-61.631454
4777.343750	-62.232334
4778.320312	-62.403240
4779.296875	-63.379864
4780.273438	-62.388943
4781.250000	-61.682381
4782.226562	-61.299011
4783.203125	-61.927792
4784.179688	-61.685772
4785.156250	-60.915024
4786.132812	-61.299156
4787.109375	-62.075588
4788.085938	-62.924644
4789.062500	-62.617348
4790.039062	-62.106571
4791.015625	-62.456791
4791.992188	-61.848930
4792.968750	-63.089397
4793.945312	-61.335072
4794.921875	-60.620907
4795.898438	-61.689430
4796.875000	-62.018749
4797.851562	-62.269680
4798.828125	-61.279411
4799.804688	-61.447853
4800.781250	-61.663784
4801.757812	-61.998383
4802.734375	-61.502781
4803.710938	-62.152229
4804.687500	-61.179729
4805.664062	-62.641510
4806.640625	-61.689678
4807.617188	-62.087708
4808.593750	-61.038300
4809.570312	-62.033226
4810.546875	-62.604439
4811.523438	-62.138142
4812.500000	-60.224247
4813.476562	-61.178104
4814.453125	-61.712746
4815.429688	-61.448643
4816.406250	-61.395515
4817.382812	-60.323406
4818.359375	-60.222122
4819.335938	-60.930000
4820.312500	-61.515312
4821.289062	-61.997112
4822.265625	-61.215710
4823.242188	-61.100197
4824.218750	-61.880447
4825.195312	-62.164143
4826.171875	-60.929245
4827.148438	-61.277203
4828.125000	-62.434464
4829.101562	-63.053471
4830.078125	-60.306980
4831.054688	-60.878311
4832.031250	-61.371685
4833.007812	-62.082218
4833.984375	-62.044739
4834.960938	-61.726467
4835.937500	-61.648849
4836.914062	-60.780582
4837.890625	-61.094532
4838.867188	-61.897472
4839.843750	-60.844452
4840.820312	-60.439827
4841.796875	-59.698071
4842.773438	-60.113945
4843.750000	-61.009789
4844.726562	-61.508747
4845.703125	-61.562756
4846.679688	-61.574368
4847.656250	-60.323910
4848.632812	-62.914230
4849.609375	-62.112183
4850.585938	-62.349159
4851.562500	-61.496597
4852.539062	-60.410313
4853.515625	-61.640106
4854.492188	-61.754051
4855.468750	-61.679478
4856.445312	-60.600143
4857.421875	-61.098255
4858.398438	-60.672497
4859.375000	-61.213291
4860.351562	-62.013264
4861.328125	-61.079250
4862.304688	-61.553261
4863.281250	-61.393276
4864.257812	-60.718159
4865.234375	-60.347893
4866.210938	-61.436386
4867.187500	-61.749432
4868.164062	-60.157887
4869.140625	-61.437847
4870.117188	-61.977379
4871.093750	-61.997704
4872.070312	-61.138203
4873.046875	-62.809578
4874.023438	-62.252998
4875.000000	-60.851120
4875.976562	-61.945168
4876.953125	-60.581215
4877.929688	-60.095249
4878.906250	-62.452938
4879.882812	-60.864719
4880.859375	-60.828388
4881.835938	-60.898323
4882.812500	-63.438713
4883.789062	-62.515167
4884.765625	-63.202896
4885.742188	-61.224983
4886.718750	-62.056999
4887.695312	-60.717319
4888.671875	-61.911263
4889.648438	-61.049755
4890.625000	-61.310871
4891.601562	-61.682861
4892.578125	-60.953415
4893.554688	-61.844067
4894.531250	-61.860947
4895.507812	-62.146976
4896.484375	-62.612137
4897.460938	-61.561069
4898.437500	-61.293015
4899.414062	-61.890854
4900.390625	-63.673790
4901.367188	-61.988480
4902.343750	-61.564762
4903.320312	-60.716644
4904.296875	-62.121994
4905.273438	-62.757771
4906.250000	-61.480381
4907.226562	-61.841164
4908.203125	-61.665150
4909.179688	-61.941029
4910.156250	-60.747135
4911.132812	-61.842571
4912.109375	-60.784294
4913.085938	-61.632751
4914.062500	-60.950768
4915.039062	-60.539379
4916.015625	-60.872196
4916.992188	-61.415359
4917.968750	-62.063538
4918.945312	-60.704586
4919.921875	-61.772820
4920.898438	-62.068333
4921.875000	-61.977802
4922.851562	-61.986042
4923.828125	-62.170128
4924.804688	-62.981216
4925.781250	-62.159897
4926.757812	-60.867809
4927.734375	-60.805260
4928.710938	-62.334221
4929.687500	-60.766869
4930.664062	-60.515247
4931.640625	-61.868958
4932.617188	-61.975201
4933.593750	-60.290684
4934.570312	-60.629841
4935.546875	-62.019104
4936.523438	-61.001179
4937.500000	-61.170773
4938.476562	-61.318253
4939.453125	-60.444984
4940.429688	-62.445534
4941.406250	-62.890499
4942.382812	-61.842747
4943.359375	-61.296791
4944.335938	-62.341778
4945.312500	-60.882195
4946.289062	-61.329830
4947.265625	-61.301838
4948.242188	-61.071144
4949.218750	-62.130886
4950.195312	-62.228455
4951.171875	-62.229584
4952.148438	-62.385376
4953.125000	-62.512798
4954.101562	-62.001373
4955.078125	-61.651321
4956.054688	-62.146835
4957.031250	-61.591694
4958.007812	-61.844475
4958.984375	-60.252865
4959.960938	-59.736309
4960.937500	-61.619942
4961.914062	-61.369411
4962.890625	-61.154339
4963.867188	-61.075066
4964.843750	-61.306591
4965.820312	-61.718098
4966.796875	-62.144585
4967.773438	-62.366947
4968.750000	-61.573074
4969.726562	-61.632038
4970.703125	-60.633121
4971.679688	-61.516552
4972.656250	-60.851269
4973.632812	-62.264282
4974.609375	-61.971970
4975.585938	-60.768620
4976.562500	-62.237270
4977.539062	-63.283901
4978.515625	-61.513767
4979.492188	-61.093090
4980.468750	-61.205212
4981.445312	-62.079865
4982.421875	-61.395119
4983.398438	-62.608047
4984.375000	-62.199245
4985.351562	-62.420223
4986.328125	-61.380993
4987.304688	-60.902428
4988.281250	-62.699791
4989.257812	-61.810322
4990.234375	-62.030632
4991.210938	-61.794590
4992.187500	-61.525555
4993.164062	-62.016994
4994.140625	-61.648518
4995.117188	-62.261574
4996.093750	-62.048225
4997.070312	-61.124569
4998.046875	-61.479950
4999.023438	-62.191563
5000.000000	-61.249138
5000.976562	-61.028362
5001.953125	-61.825516
5002.929688	-61.631157
5003.906250	-62.564690
5004.882812	-60.884846
5005.859375	-62.902679
5006.835938	-61.083061
5007.812500	-60.916996
5008.789062	-62.901360
5009.765625	-61.551380
5010.742188	-61.737598
5011.718750	-62.469608
5012.695312	-61.856632
5013.671875	-61.949039
5014.648438	-61.295567
5015.625000	-60.492012
5016.601562	-62.100319
5017.578125	-61.174282
5018.554688	-62.115498
5019.531250	-62.827774
5020.507812	-62.073509
5021.484375	-63.354416
5022.460938	-61.461643
5023.437500	-61.380035
5024.414062	-62.292477
5025.390625	-61.760235
5026.367188	-63.554935
5027.343750	-61.006126
5028.320312	-62.963612
5029.296875	-62.178009
5030.273438	-62.114929
5031.250000	-62.305573
5032.226562	-63.000629
5033.203125	-63.007744
5034.179688	-64.077873
5035.156250	-62.733978
5036.132812	-62.097439
5037.109375	-61.973984
5038.085938	-63.206161
5039.062500	-63.775398
5040.039062	-62.712761
5041.015625	-63.413685
5041.992188	-61.880600
5042.968750	-62.718945
5043.945312	-61.940422
5044.921875	-62.647655
5045.898438	-63.724262
5046.875000	-61.845985
5047.851562	-62.160473
5048.828125	-62.382622
5049.804688	-62.591820
5050.781250	-61.438316
5051.757812	-61.239887
5052.734375	-60.769329
5053.710938	-60.547935
5054.687500	-61.750282
5055.664062	-62.260788
5056.640625	-61.143074
5057.617188	-62.473492
5058.593750	-63.245934
5059.570312	-62.846008
5060.546875	-61.930172
5061.523438	-61.771740
5062.500000	-63.243477
5063.476562	-63.285892
5064.453125	-62.670223
5065.429688	-63.179367
5066.406250	-62.511723
5067.382812	-61.383923
5068.359375	-62.278954
5069.335938	-64.151413
5070.312500	-62.689014
5071.289062	-61.755722
5072.265625	-62.355717
5073.242188	-61.756836
5074.218750	-61.627369
5075.195312	-62.288944
5076.171875	-62.979252
5077.148438	-62.174091
5078.125000	-62.734123
5079.101562	-61.974869
5080.078125	-62.331848
5081.054688	-63.130978
5082.031250	-62.425373
5083.007812	-61.987633
5083.984375	-61.795876
5084.960938	-62.503254
5085.937500	-61.308029
5086.914062	-62.496658
5087.890625	-61.909962
5088.867188	-61.901581
5089.843750	-62.053143
5090.820312	-62.797913
5091.796875	-61.678040
5092.773438	-61.826767
5093.750000	-61.507683
5094.726562	-63.162483
5095.703125	-61.397926
5096.679688	-61.245953
5097.656250	-62.823948
5098.632812	-61.404415
5099.609375	-61.700600
5100.585938	-62.016254
5101.562500	-60.690979
5102.539062	-61.078434
5103.515625	-60.025867
5104.492188	-61.579773
5105.468750	-61.740089
5106.445312	-61.435741
5107.421875	-59.688725
5108.398438	-60.794781
5109.375000	-61.497017
5110.351562	-61.396194
5111.328125	-60.916206
5112.304688	-62.231194
5113.281250	-61.782177
5114.257812	-62.175713
5115.234375	-64.321159
5116.210938	-61.129013
5117.187500	-62.420101
5118.164062	-63.253799
5119.140625	-62.777119
5120.117188	-62.389114
5121.093750	-62.442970
5122.070312	-61.943089
5123.046875	-61.834274
5124.023438	-62.820541
5125.000000	-61.663338
5125.976562	-62.167645
5126.953125	-62.233940
5127.929688	-62.190819
5128.906250	-59.547783
5129.882812	-61.457489
5130.859375	-59.950447
5131.835938	-59.624905
5132.812500	-61.543011
5133.789062	-61.555485
5134.765625	-61.280167
5135.742188	-61.332661
5136.718750	-61.187645
5137.695312	-62.349373
5138.671875	-63.348995
5139.648438	-63.172913
5140.625000	-63.156147
5141.601562	-62.201500
5142.578125	-62.681747
5143.554688	-61.013035
5144.531250	-60.457771
5145.507812	-60.945629
5146.484375	-61.612324
5147.460938	-61.156910
5148.437500	-61.255318
5149.414062	-61.276970
5150.390625	-61.490292
5151.367188	-60.445801
5152.343750	-60.267002
5153.320312	-61.528786
5154.296875	-60.603889
5155.273438	-59.829044
5156.250000	-60.477711
5157.226562	-60.747387
5158.203125	-61.276249
5159.179688	-60.859539
5160.156250	-61.722916
5161.132812	-61.976887
5162.109375	-61.355255
5163.085938	-60.291569
5164.062500	-61.994278
5165.039062	-61.529896
5166.015625	-62.887917
5166.992188	-62.487377
5167.968750	-61.105835
5168.945312	-61.588547
5169.921875	-61.710987
5170.898438	-59.599934
5171.875000	-60.943726
5172.851562	-60.309563
5173.828125	-61.045235
5174.804688	-60.536198
5175.781250	-59.313694
5176.757812	-61.103500
5177.734375	-61.558651
5178.710938	-60.640446
5179.687500	-60.799244
5180.664062	-60.865051
5181.640625	-60.670265
5182.617188	-61.721088
5183.593750	-60.573364
5184.570312	-59.920246
5185.546875	-60.653214
5186.523438	-60.577454
5187.500000	-59.958763
5188.476562	-59.689083
5189.453125	-61.254833
5190.429688	-61.118179
5191.406250	-59.976818
5192.382812	-59.998161
5193.359375	-60.526428
5194.335938	-59.964104
5195.312500	-60.926136
5196.289062	-61.599659
5197.265625	-61.957657
5198.242188	-60.898594
5199.218750	-60.893547
5200.195312	-60.570969
5201.171875	-60.310955
5202.148438	-61.095612
5203.125000	-60.036526
5204.101562	-60.406982
5205.078125	-59.892456
5206.054688	-58.808681
5207.031250	-60.047302
5208.007812	-61.084759
5208.984375	-60.011784
5209.960938	-59.708378
5210.937500	-60.761044
5211.914062	-60.099010
5212.890625	-59.693333
5213.867188	-59.838612
5214.843750	-58.323589
5215.820312	-59.664013
5216.796875	-58.938725
5217.773438	-60.200134
5218.750000	-59.656494
5219.726562	-60.674904
5220.703125	-59.949665
5221.679688	-61.575916
5222.656250	-60.579388
5223.632812	-59.380360
5224.609375	-62.283371
5225.585938	-59.753117
5226.562500	-60.090675
5227.539062	-60.761803
5228.515625	-59.798481
5229.492188	-59.107784
5230.468750	-59.345230
5231.445312	-60.213139
5232.421875	-59.741997
5233.398438	-60.295998
5234.375000	-59.278664
5235.351562	-59.223846
5236.328125	-59.993740
5237.304688	-60.416252
5238.281250	-58.489197
5239.257812	-59.160484
5240.234375	-60.608067
5241.210938	-59.383762
5242.187500	-58.093231
5243.164062	-59.844357
5244.140625	-58.360699
5245.117188	-57.337856
5246.093750	-59.045120
5247.070312	-58.912498
5248.046875	-57.305607
5249.023438	-58.370651
5250.000000	-60.307388
5250.976562	-58.733181
5251.953125	-58.161652
5252.929688	-60.156509
5253.906250	-58.939388
5254.882812	-59.631027
5255.859375	-58.391846
5256.835938	-57.499859
5257.812500	-56.953793
5258.789062	-58.693768
5259.765625	-58.408012
5260.742188	-59.236237
5261.718750	-59.319717
5262.695312	-58.922733
5263.671875	-57.671379
5264.648438	-58.575684
5265.625000	-58.612724
5266.601562	-57.846260
5267.578125	-57.745483
5268.554688	-57.036743
5269.531250	-58.339687
5270.507812	-58.740318
5271.484375	-58.176456
5272.460938	-58.649918
5273.437500	-57.378590
5274.414062	-57.154427
5275.390625	-56.987907
5276.367188	-57.515015
5277.343750	-56.696312
5278.320312	-56.775696
5279.296875	-56.861397
5280.273438	-57.957420
5281.250000	-56.977852
5282.226562	-58.766510
5283.203125	-57.173698
5284.179688	-55.466095
5285.156250	-57.156643
5286.132812	-57.360870
5287.109375	-56.474258
5288.085938	-56.486816
5289.062500	-56.821186
5290.039062	-57.103657
5291.015625	-55.460213
5291.992188	-57.487240
5292.968750	-57.220028
5293.945312	-55.482044
5294.921875	-57.739182
5295.898438	-55.549694
5296.875000	-58.510292
5297.851562	-57.574715
5298.828125	-56.459049
5299.804688	-56.879887
5300.781250	-56.368340
5301.757812	-56.435074
5302.734375	-55.825806
5303.710938	-56.081821
5304.687500	-58.264435
5305.664062	-56.707146
5306.640625	-57.486328
5307.617188	-56.274841
5308.593750	-56.739697
5309.570312	-54.814857
5310.546875	-55.252167
5311.523438	-56.896557
5312.500000	-58.508701
5313.476562	-55.661259
5314.453125	-56.249908
5315.429688	-56.270702
5316.406250	-55.615547
5317.382812	-56.270851
5318.359375	-56.405739
5319.335938	-55.275745
5320.312500	-55.590630
5321.289062	-56.881214
5322.265625	-56.028221
5323.242188	-55.281033
5324.218750	-56.764736
5325.195312	-56.327030
5326.171875	-55.939594
5327.148438	-55.492863
5328.125000	-55.197880
5329.101562	-57.442303
5330.078125	-56.544140
5331.054688	-57.359989
5332.031250	-58.067070
5333.007812	-58.831169
5333.984375	-57.920151
5334.960938	-58.524925
5335.937500	-58.022278
5336.914062	-58.065750
5337.890625	-56.240246
5338.867188	-57.357975
5339.843750	-57.766956
5340.820312	-56.521641
5341.796875	-57.187042
5342.773438	-59.079460
5343.750000	-59.592972
5344.726562	-55.698616
5345.703125	-57.051781
5346.679688	-58.436344
5347.656250	-58.857193
5348.632812	-57.863373
5349.609375	-56.496891
5350.585938	-57.670761
5351.562500	-57.656765
5352.539062	-58.463200
5353.515625	-59.185902
5354.492188	-58.446453
5355.468750	-58.609772
5356.445312	-57.430233
5357.421875	-57.794071
5358.398438	-58.036655
5359.375000	-59.298409
5360.351562	-58.739391
5361.328125	-57.316402
5362.304688	-56.967537
5363.281250	-58.300877
5364.257812	-57.296902
5365.234375	-58.260303
5366.210938	-57.099651
5367.187500	-57.693302
5368.164062	-58.339161
5369.140625	-58.219547
5370.117188	-59.445549
5371.093750	-59.232906
5372.070312	-58.661800
5373.046875	-59.545277
5374.023438	-58.122723
5375.000000	-57.703899
5375.976562	-57.824051
5376.953125	-59.016903
5377.929688	-58.517403
5378.906250	-57.679585
5379.882812	-58.515278
5380.859375	-58.374146
5381.835938	-57.937828
5382.812500	-58.914822
5383.789062	-58.814030
5384.765625	-59.123688
5385.742188	-58.110455
5386.718750	-59.586716
5387.695312	-59.068481
5388.671875	-58.717793
5389.648438	-59.854988
5390.625000	-58.757236
5391.601562	-58.628246
5392.578125	-57.877430
5393.554688	-58.683659
5394.531250	-58.355522
5395.507812	-58.453960
5396.484375	-59.798824
5397.460938	-59.078869
5398.437500	-59.057995
5399.414062	-59.399006
5400.390625	-59.411007
5401.367188	-58.880791
5402.343750	-59.812302
5403.320312	-58.338768
5404.296875	-58.946270
5405.273438	-59.350754
5406.250000	-59.102459
5407.226562	-57.968235
5408.203125	-58.136433
5409.179688	-57.771904
5410.156250	-58.474602
5411.132812	-60.011356
5412.109375	-59.569405
5413.085938	-58.979431
5414.062500	-59.006908
5415.039062	-60.311050
5416.015625	-60.396381
5416.992188	-59.706013
5417.968750	-59.683346
5418.945312	-59.963840
5419.921875	-60.244160
5420.898438	-59.507710
5421.875000	-59.448658
5422.851562	-59.009453
5423.828125	-59.991192
5424.804688	-59.120773
5425.781250	-60.398773
5426.757812	-60.517750
5427.734375	-60.352993
5428.710938	-59.185215
5429.687500	-57.707825
5430.664062	-60.187698
5431.640625	-58.805344
5432.617188	-59.201729
5433.593750	-59.747128
5434.570312	-58.768055
5435.546875	-59.178982
5436.523438	-59.393524
5437.500000	-58.196159
5438.476562	-59.681580
5439.453125	-59.952896
5440.429688	-58.764725
5441.406250	-58.769497
5442.382812	-59.722439
5443.359375	-59.589378
5444.335938	-60.140892
5445.312500	-60.010483
5446.289062	-59.374550
5447.265625	-60.894009
5448.242188	-59.398720
5449.218750	-58.746349
5450.195312	-58.673969
5451.171875	-59.141083
5452.148438	-59.451782
5453.125000	-60.221615
5454.101562	-58.659008
5455.078125	-58.322201
5456.054688	-59.730869
5457.031250	-60.187069
5458.007812	-58.841541
5458.984375	-59.616848
5459.960938	-59.077309
5460.937500	-59.263649
5461.914062	-58.855438
5462.890625	-60.461056
5463.867188	-59.236019
5464.843750	-58.739243
5465.820312	-60.962975
5466.796875	-60.134762
5467.773438	-59.607117
5468.750000	-60.010757
5469.726562	-60.898540
5470.703125	-60.792080
5471.679688	-61.304432
5472.656250	-60.294731
5473.632812	-59.203594
5474.609375	-60.305435
5475.585938	-59.589130
5476.562500	-59.795822
5477.539062	-58.801376
5478.515625	-59.216591
5479.492188	-59.307858
5480.468750	-58.168221
5481.445312	-59.650715
5482.421875	-62.459396
5483.398438	-60.639168
5484.375000	-59.387806
5485.351562	-59.597755
5486.328125	-60.233276
5487.304688	-60.411049
5488.281250	-59.395611
5489.257812	-59.915798
5490.234375	-60.003826
5491.210938	-60.552254
5492.187500	-61.098190
5493.164062	-60.108536
5494.140625	-60.973637
5495.117188	-60.196350
5496.093750	-61.365479
5497.070312	-60.105312
5498.046875	-61.017239
5499.023438	-60.168682
5500.000000	-62.024143
5500.976562	-62.181396
5501.953125	-60.500034
5502.929688	-60.746700
5503.906250	-59.876698
5504.882812	-59.637665
5505.859375	-61.119942
5506.835938	-60.783165
5507.812500	-59.973789
5508.789062	-59.849895
5509.765625	-61.374249
5510.742188	-60.762344
5511.718750	-59.760376
5512.695312	-59.765602
5513.671875	-59.356030
5514.648438	-59.793339
5515.625000	-59.678436
5516.601562	-60.260242
5517.578125	-60.698536
5518.554688	-60.002102
5519.531250	-61.347172
5520.507812	-59.351234
5521.484375	-60.291874
5522.460938	-59.263985
5523.437500	-58.868919
5524.414062	-59.188976
5525.390625	-59.022015
5526.367188	-59.230667
5527.343750	-60.182201
5528.320312	-59.240849
5529.296875	-61.268238
5530.273438	-60.073051
5531.250000	-59.802162
5532.226562	-58.639774
5533.203125	-60.771183
5534.179688	-59.273354
5535.156250	-59.476189
5536.132812	-59.586239
5537.109375	-61.292976
5538.085938	-59.472965
5539.062500	-60.577934
5540.039062	-62.141903
5541.015625	-61.414894
5541.992188	-59.818745
5542.968750	-59.452038
5543.945312	-60.388573
5544.921875	-60.523834
5545.898438	-59.122105
5546.875000	-59.046822
5547.851562	-60.266552
5548.828125	-59.652939
5549.804688	-60.797825
5550.781250	-59.165665
5551.757812	-59.213921
5552.734375	-60.020905
5553.710938	-59.341812
5554.687500	-59.504204
5555.664062	-59.953381
5556.640625	-59.926792
5557.617188	-60.279076
5558.593750	-59.878365
5559.570312	-59.018112
5560.546875	-58.258369
5561.523438	-59.405220
5562.500000	-60.551926
5563.476562	-60.577469
5564.453125	-60.188648
5565.429688	-59.424622
5566.406250	-60.445068
5567.382812	-60.251728
5568.359375	-60.837154
5569.335938	-59.369801
5570.312500	-59.782181
5571.289062	-59.641769
5572.265625	-58.941254
5573.242188	-58.452526
5574.218750	-59.789925
5575.195312	-60.818016
5576.171875	-59.659035
5577.148438	-59.456654
5578.125000	-59.520687
5579.101562	-58.707581
5580.078125	-59.337101
5581.054688	-59.902176
5582.031250	-60.590744
5583.007812	-60.273441
5583.984375	-61.575485
5584.960938	-59.479607
5585.937500	-59.499207
5586.914062	-60.138145
5587.890625	-61.230831
5588.867188	-60.807976
5589.843750	-60.582466
5590.820312	-59.285816
5591.796875	-59.386269
5592.773438	-58.983364
5593.750000	-58.072559
5594.726562	-57.635658
5595.703125	-59.478001
5596.679688	-60.973698
5597.656250	-60.060909
5598.632812	-59.969246
5599.609375	-58.120434
5600.585938	-59.139458
5601.562500	-59.745762
5602.539062	-58.450932
5603.515625	-60.392784
5604.492188	-60.509354
5605.468750	-61.335018
5606.445312	-59.132271
5607.421875	-58.601608
5608.398438	-59.448887
5609.375000	-61.003090
5610.351562	-61.458263
5611.328125	-59.217258
5612.304688	-59.184612
5613.281250	-59.310131
5614.257812	-60.159653
5615.234375	-59.882652
5616.210938	-58.128437
5617.187500	-58.753498
5618.164062	-59.315598
5619.140625	-59.452667
5620.117188	-60.396824
5621.093750	-59.499393
5622.070312	-58.921879
5623.046875	-58.185104
5624.023438	-59.346886
5625.000000	-58.876873
5625.976562	-59.397846
5626.953125	-59.259628
5627.929688	-60.291759
5628.906250	-58.756687
5629.882812	-58.747475
5630.859375	-59.634094
5631.835938	-58.552147
5632.812500	-58.392319
5633.789062	-57.954590
5634.765625	-58.712830
5635.742188	-58.655231
5636.718750	-58.214169
5637.695312	-58.739944
5638.671875	-59.688965
5639.648438	-59.024666
5640.625000	-58.668163
5641.601562	-58.929405
5642.578125	-58.004360
5643.554688	-57.084217
5644.531250	-58.043903
5645.507812	-56.564445
5646.484375	-58.358032
5647.460938	-58.865234
5648.437500	-57.776493
5649.414062	-57.499214
5650.390625	-60.589207
5651.367188	-59.275024
5652.343750	-58.468853
5653.320312	-58.581181
5654.296875	-56.754730
5655.273438	-57.146412
5656.250000	-58.629562
5657.226562	-58.151550
5658.203125	-57.850323
5659.179688	-57.727623
5660.156250	-58.250557
5661.132812	-59.733635
5662.109375	-60.055721
5663.085938	-59.239388
5664.062500	-57.825382
5665.039062	-56.616753
5666.015625	-57.115444
5666.992188	-57.366695
5667.968750	-58.043678
5668.945312	-58.434738
5669.921875	-57.212440
5670.898438	-57.298836
5671.875000	-57.798435
5672.851562	-58.744812
5673.828125	-58.439037
5674.804688	-58.641933
5675.781250	-58.087654
5676.757812	-57.665169
5677.734375	-58.610844
5678.710938	-57.463875
5679.687500	-57.970184
5680.664062	-57.728104
5681.640625	-58.993317
5682.617188	-58.317886
5683.593750	-56.280544
5684.570312	-56.976391
5685.546875	-58.202946
5686.523438	-57.102512
5687.500000	-58.609409
5688.476562	-59.386856
5689.453125	-56.767986
5690.429688	-56.369984
5691.406250	-56.309937
5692.382812	-57.499065
5693.359375	-57.956364
5694.335938	-57.714424
5695.312500	-56.120468
5696.289062	-57.632755
5697.265625	-57.310040
5698.242188	-57.606815
5699.218750	-58.568535
5700.195312	-56.747478
5701.171875	-56.702259
5702.148438	-56.012375
5703.125000	-56.702873
5704.101562	-57.167103
5705.078125	-57.004608
5706.054688	-57.131027
5707.031250	-56.279190
5708.007812	-56.242325
5708.984375	-55.320641
5709.960938	-56.082542
5710.937500	-58.488205
5711.914062	-58.556828
5712.890625	-57.295441
5713.867188	-57.524849
5714.843750	-57.520237
5715.820312	-55.655617
5716.796875	-56.100368
5717.773438	-56.830421
5718.750000	-57.597519
5719.726562	-55.739120
5720.703125	-55.897930
5721.679688	-56.349556
5722.656250	-56.059071
5723.632812	-56.255241
5724.609375	-56.842854
5725.585938	-55.663334
5726.562500	-56.341408
5727.539062	-54.911404
5728.515625	-56.133717
5729.492188	-57.551445
5730.468750	-57.264278
5731.445312	-55.281151
5732.421875	-55.953979
5733.398438	-55.499275
5734.375000	-55.673897
5735.351562	-56.644035
5736.328125	-55.860825
5737.304688	-55.119724
5738.281250	-54.973125
5739.257812	-53.466106
5740.234375	-55.522842
5741.210938	-54.681068
5742.187500	-54.355408
5743.164062	-53.795227
5744.140625	-54.319401
5745.117188	-54.649403
5746.093750	-55.472591
5747.070312	-55.307701
5748.046875	-55.265324
5749.023438	-55.110020
5750.000000	-54.786575
5750.976562	-53.932751
5751.953125	-54.123730
5752.929688	-55.315361
5753.906250	-54.124172
5754.882812	-55.594646
5755.859375	-56.272877
5756.835938	-55.639168
5757.812500	-54.543304
5758.789062	-55.461502
5759.765625	-54.337475
5760.742188	-53.371288
5761.718750	-55.389210
5762.695312	-53.403034
5763.671875	-54.725975
5764.648438	-53.639305
5765.625000	-53.916553
5766.601562	-53.474480
5767.578125	-54.718376
5768.554688	-54.512321
5769.531250	-55.133125
5770.507812	-55.428360
5771.484375	-54.487587
5772.460938	-56.607639
5773.437500	-53.237381
5774.414062	-54.486252
5775.390625	-54.575294
5776.367188	-54.608578
5777.343750	-54.208336
5778.320312	-52.954483
5779.296875	-53.488815
5780.273438	-53.128540
5781.250000	-55.953175
5782.226562	-54.533451
5783.203125	-55.020027
5784.179688	-53.277039
5785.156250	-53.779774
5786.132812	-53.964462
5787.109375	-54.194607
5788.085938	-56.078220
5789.062500	-53.419884
5790.039062	-52.959076
5791.015625	-54.074032
5791.992188	-53.329380
5792.968750	-53.595158
5793.945312	-53.282017
5794.921875	-54.219257
5795.898438	-55.769897
5796.875000	-54.130737
5797.851562	-53.837029
5798.828125	-52.922073
5799.804688	-53.129765
5800.781250	-53.352253
5801.757812	-53.732422
5802.734375	-54.287579
5803.710938	-56.778908
5804.687500	-55.033722
5805.664062	-53.525192
5806.640625	-52.499054
5807.617188	-53.713894
5808.593750	-53.397770
5809.570312	-54.635265
5810.546875	-53.450981
5811.523438	-53.145485
5812.500000	-54.023121
5813.476562	-53.629124
5814.453125	-54.529045
5815.429688	-53.853977
5816.406250	-54.422886
5817.382812	-56.148182
5818.359375	-55.130188
5819.335938	-54.264194
5820.312500	-54.563251
5821.289062	-55.565277
5822.265625	-54.481945
5823.242188	-53.379135
5824.218750	-54.992001
5825.195312	-53.415607
5826.171875	-55.666279
5827.148438	-54.939468
5828.125000	-55.236683
5829.101562	-55.192921
5830.078125	-54.879040
5831.054688	-53.560944
5832.031250	-54.595566
5833.007812	-53.873741
5833.984375	-54.979900
5834.960938	-54.855045
5835.937500	-53.039833
5836.914062	-55.537094
5837.890625	-55.203873
5838.867188	-55.399586
5839.843750	-54.520710
5840.820312	-56.285465
5841.796875	-54.831478
5842.773438	-56.079987
5843.750000	-54.085869
5844.726562	-55.806332
5845.703125	-56.106861
5846.679688	-55.000656
5847.656250	-53.985191
5848.632812	-55.548378
5849.609375	-56.841072
5850.585938	-55.287930
5851.562500	-55.405136
5852.539062	-54.264153
5853.515625	-56.530430
5854.492188	-55.324142
5855.468750	-54.095909
5856.445312	-53.840076
5857.421875	-53.294060
5858.398438	-55.170753
5859.375000	-55.918877
5860.351562	-53.638142
5861.328125	-54.721645
5862.304688	-55.368332
5863.281250	-54.141186
5864.257812	-55.986473
5865.234375	-56.161575
5866.210938	-55.135162
5867.187500	-56.062172
5868.164062	-55.233768
5869.140625	-55.259731
5870.117188	-55.295841
5871.093750	-55.919922
5872.070312	-55.809345
5873.046875	-55.520290
5874.023438	-56.096706
5875.000000	-55.971119
5875.976562	-55.735790
5876.953125	-54.446739
5877.929688	-54.795082
5878.906250	-55.370808
5879.882812	-56.275890
5880.859375	-56.142719
5881.835938	-55.465965
5882.812500	-56.018036
5883.789062	-54.309555
5884.765625	-56.251740
5885.742188	-55.842983
5886.718750	-56.820580
5887.695312	-56.685577
5888.671875	-56.887836
5889.648438	-56.402634
5890.625000	-57.458691
5891.601562	-56.283146
5892.578125	-55.348732
5893.554688	-55.783333
5894.531250	-55.842316
5895.507812	-56.301609
5896.484375	-55.954556
5897.460938	-56.327518
5898.437500	-55.562630
5899.414062	-54.797035
5900.390625	-55.335911
5901.367188	-54.886478
5902.343750	-55.612835
5903.320312	-56.876965
5904.296875	-55.296040
5905.273438	-54.882484
5906.250000	-55.511684
5907.226562	-56.397499
5908.203125	-57.896862
5909.179688	-56.046417
5910.156250	-56.027004
5911.132812	-55.672798
5912.109375	-56.494549
5913.085938	-55.101990
5914.062500	-55.823318
5915.039062	-56.930801
5916.015625	-55.686859
5916.992188	-55.399010
5917.968750	-55.670235
5918.945312	-56.419502
5919.921875	-58.024487
5920.898438	-56.006485
5921.875000	-57.328018
5922.851562	-57.261864
5923.828125	-58.525581
5924.804688	-57.238102
5925.781250	-57.414623
5926.757812	-56.536533
5927.734375	-56.068359
5928.710938	-55.741245
5929.687500	-57.272041
5930.664062	-57.078545
5931.640625	-57.626804
5932.617188	-57.470634
5933.593750	-57.001808
5934.570312	-56.168064
5935.546875	-57.032154
5936.523438	-57.292049
5937.500000	-56.038185
5938.476562	-56.001961
5939.453125	-56.128376
5940.429688	-56.056561
5941.406250	-56.978806
5942.382812	-56.897312
5943.359375	-54.869469
5944.335938	-55.036247
5945.312500	-55.754829
5946.289062	-55.132324
5947.265625	-56.326050
5948.242188	-56.832169
5949.218750	-56.660099
5950.195312	-55.495499
5951.171875	-56.011005
5952.148438	-58.327229
5953.125000	-57.247311
5954.101562	-55.888374
5955.078125	-57.313820
5956.054688	-56.516617
5957.031250	-55.232109
5958.007812	-55.317406
5958.984375	-56.294636
5959.960938	-56.659748
5960.937500	-56.476055
5961.914062	-55.811642
5962.890625	-55.800488
5963.867188	-54.862343
5964.843750	-55.325596
5965.820312	-55.340607
5966.796875	-56.207481
5967.773438	-55.739399
5968.750000	-55.241631
5969.726562	-55.179390
5970.703125	-56.689053
5971.679688	-56.714581
5972.656250	-54.743069
5973.632812	-55.089363
5974.609375	-55.198521
5975.585938	-55.689800
5976.562500	-55.449554
5977.539062	-55.946045
5978.515625	-56.465446
5979.492188	-56.781391
5980.468750	-55.919083
5981.445312	-55.677147
5982.421875	-55.799438
5983.398438	-55.825581
5984.375000	-55.987038
5985.351562	-56.999416
5986.328125	-54.973003
5987.304688	-54.498718
5988.281250	-55.355591
5989.257812	-55.751472
5990.234375	-54.642307
5991.210938	-56.944508
5992.187500	-56.501270
5993.164062	-55.592258
5994.140625	-55.918270
5995.117188	-56.368401
5996.093750	-56.154514
5997.070312	-56.341106
5998.046875	-55.168579
5999.023438	-55.959778
6000.000000	-57.041939
6000.976562	-57.302288
6001.953125	-56.349003
6002.929688	-55.903683
6003.906250	-55.301525
6004.882812	-57.300999
6005.859375	-55.677288
6006.835938	-55.314102
6007.812500	-55.365795
6008.789062	-56.199852
6009.765625	-56.985268
6010.742188	-57.884922
6011.718750	-57.441345
6012.695312	-57.042831
6013.671875	-55.672188
6014.648438	-55.711163
6015.625000	-56.101704
6016.601562	-56.127934
6017.578125	-56.941875
6018.554688	-56.811085
6019.531250	-56.953373
6020.507812	-55.780426
6021.484375	-55.641605
6022.460938	-56.079529
6023.437500	-56.253799
6024.414062	-55.546070
6025.390625	-55.376099
6026.367188	-55.556606
6027.343750	-56.146133
6028.320312	-55.980354
6029.296875	-56.800495
6030.273438	-57.212040
6031.250000	-56.217072
6032.226562	-55.913174
6033.203125	-56.368610
6034.179688	-55.706211
6035.156250	-56.108452
6036.132812	-56.038517
6037.109375	-55.886074
6038.085938	-55.367104
6039.062500	-55.108318
6040.039062	-56.425095
6041.015625	-56.686436
6041.992188	-55.951488
6042.968750	-56.219063
6043.945312	-56.218704
6044.921875	-56.050934
6045.898438	-55.848068
6046.875000	-54.425606
6047.851562	-54.811813
6048.828125	-55.444885
6049.804688	-55.169628
6050.781250	-54.185764
6051.757812	-55.652866
6052.734375	-56.520031
6053.710938	-56.615608
6054.687500	-55.861641
6055.664062	-55.273399
6056.640625	-54.840904
6057.617188	-56.227386
6058.593750	-56.032375
6059.570312	-53.655499
6060.546875	-54.131786
6061.523438	-55.972160
6062.500000	-55.770100
6063.476562	-58.023632
6064.453125	-53.953190
6065.429688	-53.547169
6066.406250	-55.441147
6067.382812	-55.434853
6068.359375	-54.703968
6069.335938	-55.079075
6070.312500	-55.183022
6071.289062	-54.668930
6072.265625	-54.415459
6073.242188	-54.973633
6074.218750	-54.170826
6075.195312	-54.282463
6076.171875	-54.603527
6077.148438	-53.559139
6078.125000	-53.594467
6079.101562	-54.898193
6080.078125	-54.431923
6081.054688	-54.493645
6082.031250	-55.608349
6083.007812	-55.449703
6083.984375	-55.126019
6084.960938	-54.903996
6085.937500	-54.534389
6086.914062	-53.123863
6087.890625	-56.307148
6088.867188	-55.213768
6089.843750	-54.268105
6090.820312	-54.232582
6091.796875	-54.577858
6092.773438	-54.025108
6093.750000	-54.825859
6094.726562	-54.926575
6095.703125	-53.474903
6096.679688	-54.055138
6097.656250	-54.666058
6098.632812	-53.104942
6099.609375	-54.259613
6100.585938	-54.438076
6101.562500	-54.081352
6102.539062	-54.477982
6103.515625	-53.717545
6104.492188	-54.807926
6105.468750	-52.975807
6106.445312	-53.229122
6107.421875	-54.364723
6108.398438	-56.484478
6109.375000	-54.216042
6110.351562	-54.937469
6111.328125	-55.324196
6112.304688	-55.043900
6113.281250	-53.514935
6114.257812	-53.502789
6115.234375	-53.982712
6116.210938	-52.750473
6117.187500	-54.638100
6118.164062	-53.761898
6119.140625	-55.089394
6120.117188	-53.445969
6121.093750	-53.543888
6122.070312	-52.475643
6123.046875	-54.530014
6124.023438	-53.177952
6125.000000	-54.627716
6125.976562	-55.584530
6126.953125	-56.394924
6127.929688	-52.300201
6128.906250	-52.624565
6129.882812	-55.017345
6130.859375	-55.602570
6131.835938	-54.565079
6132.812500	-53.932178
6133.789062	-55.133678
6134.765625	-54.415379
6135.742188	-53.999172
6136.718750	-53.341682
6137.695312	-53.214958
6138.671875	-52.487183
6139.648438	-54.022640
6140.625000	-53.463463
6141.601562	-53.662384
6142.578125	-52.233128
6143.554688	-53.473057
6144.531250	-53.246342
6145.507812	-53.412605
6146.484375	-53.187561
6147.460938	-53.721664
6148.437500	-53.325260
6149.414062	-52.347298
6150.390625	-52.350811
6151.367188	-52.859695
6152.343750	-54.591450
6153.320312	-54.335941
6154.296875	-54.613163
6155.273438	-52.718719
6156.250000	-54.040398
6157.226562	-52.386139
6158.203125	-53.553272
6159.179688	-52.293129
6160.156250	-52.655952
6161.132812	-52.314899
6162.109375	-53.318409
6163.085938	-53.437996
6164.062500	-53.933834
6165.039062	-52.752087
6166.015625	-52.622883
6166.992188	-51.907581
6167.968750	-53.601486
6168.945312	-52.788612
6169.921875	-52.805561
6170.898438	-52.805450
6171.875000	-51.437527
6172.851562	-53.081722
6173.828125	-52.827198
6174.804688	-54.206993
6175.781250	-53.506931
6176.757812	-52.984856
6177.734375	-52.831932
6178.710938	-51.715179
6179.687500	-52.481861
6180.664062	-51.932209
6181.640625	-51.414917
6182.617188	-53.165382
6183.593750	-52.765575
6184.570312	-51.871582
6185.546875	-53.491688
6186.523438	-51.840633
6187.500000	-51.615360
6188.476562	-52.446854
6189.453125	-50.606434
6190.429688	-50.453266
6191.406250	-51.994438
6192.382812	-49.969673
6193.359375	-49.718616
6194.335938	-49.532188
6195.312500	-52.279587
6196.289062	-50.942879
6197.265625	-52.745579
6198.242188	-53.295250
6199.218750	-53.746376
6200.195312	-51.538952
6201.171875	-50.648643
6202.148438	-49.976349
6203.125000	-49.890110
6204.101562	-49.603149
6205.078125	-50.328369
6206.054688	-49.302963
6207.031250	-51.309399
6208.007812	-51.758041
6208.984375	-52.793610
6209.960938	-52.262375
6210.937500	-53.267403
6211.914062	-52.765266
6212.890625	-51.467945
6213.867188	-50.001926
6214.843750	-50.732330
6215.820312	-50.535770
6216.796875	-48.902599
6217.773438	-52.113602
6218.750000	-51.027760
6219.726562	-51.750137
6220.703125	-50.855820
6221.679688	-48.668968
6222.656250	-47.763756
6223.632812	-52.186275
6224.609375	-51.324566
6225.585938	-50.555141
6226.562500	-49.956306
6227.539062	-50.183121
6228.515625	-49.207081
6229.492188	-51.332600
6230.468750	-52.609581
6231.445312	-53.837570
6232.421875	-49.532623
6233.398438	-48.650379
6234.375000	-49.469997
6235.351562	-50.555626
6236.328125	-50.504616
6237.304688	-49.354237
6238.281250	-50.128078
6239.257812	-48.634441
6240.234375	-49.675892
6241.210938	-51.551643
6242.187500	-52.019447
6243.164062	-51.833084
6244.140625	-50.342915
6245.117188	-50.635120
6246.093750	-50.150120
6247.070312	-50.283588
6248.046875	-50.152538
6249.023438	-50.089333
6250.000000	-49.158539
6250.976562	-49.519352
6251.953125	-51.021290
6252.929688	-52.406494
6253.906250	-50.406532
6254.882812	-49.275295
6255.859375	-50.467117
6256.835938	-49.893242
6257.812500	-53.244095
6258.789062	-52.860050
6259.765625	-50.318119
6260.742188	-50.309170
6261.718750	-50.337059
6262.695312	-48.975491
6263.671875	-50.258144
6264.648438	-51.018627
6265.625000	-50.014198
6266.601562	-50.785324
6267.578125	-51.972424
6268.554688	-50.247814
6269.531250	-50.549026
6270.507812	-49.913555
6271.484375	-48.830498
6272.460938	-49.508671
6273.437500	-51.328819
6274.414062	-51.682953
6275.390625	-51.874710
6276.367188	-52.167614
6277.343750	-51.088596
6278.320312	-48.827103
6279.296875	-50.977989
6280.273438	-50.845234
6281.250000	-51.177269
6282.226562	-49.576946
6283.203125	-50.475735
6284.179688	-50.421238
6285.156250	-51.081619
6286.132812	-50.775639
6287.109375	-51.644329
6288.085938	-51.889778
6289.062500	-51.178757
6290.039062	-51.270596
6291.015625	-51.031681
6291.992188	-50.815105
6292.968750	-49.548576
6293.945312	-48.479427
6294.921875	-49.251202
6295.898438	-52.421444
6296.875000	-52.752502
6297.851562	-53.628132
6298.828125	-51.262470
6299.804688	-51.591820
6300.781250	-51.916557
6301.757812	-51.813862
6302.734375	-51.084423
6303.710938	-49.307125
6304.687500	-51.611465
6305.664062	-50.418346
6306.640625	-51.209267
6307.617188	-49.937538
6308.593750	-50.903992
6309.570312	-49.747829
6310.546875	-49.631756
6311.523438	-50.412891
6312.500000	-50.440315
6313.476562	-51.807415
6314.453125	-50.466866
6315.429688	-49.056858
6316.406250	-50.224335
6317.382812	-49.457497
6318.359375	-49.228706
6319.335938	-50.765755
6320.312500	-51.912201
6321.289062	-50.668129
6322.265625	-50.108150
6323.242188	-51.416676
6324.218750	-52.235676
6325.195312	-49.927380
6326.171875	-49.549786
6327.148438	-48.947716
6328.125000	-49.301273
6329.101562	-50.325680
6330.078125	-49.461258
6331.054688	-50.337238
6332.031250	-50.646664
6333.007812	-49.865543
6333.984375	-49.926834
6334.960938	-51.570793
6335.937500	-51.309689
6336.914062	-50.393497
6337.890625	-51.128906
6338.867188	-50.371765
6339.843750	-49.540554
6340.820312	-51.933880
6341.796875	-49.716743
6342.773438	-50.979889
6343.750000	-50.945217
6344.726562	-51.221180
6345.703125	-50.689606
6346.679688	-51.942307
6347.656250	-49.349644
6348.632812	-48.922775
6349.609375	-49.910530
6350.585938	-50.771172
6351.562500	-48.419319
6352.539062	-49.462002
6353.515625	-50.464157
6354.492188	-50.299618
6355.468750	-49.866657
6356.445312	-51.314129
6357.421875	-51.315998
6358.398438	-50.142719
6359.375000	-50.463158
6360.351562	-50.603992
6361.328125	-49.402180
6362.304688	-48.948208
6363.281250	-49.939137
6364.257812	-50.001404
6365.234375	-49.942009
6366.210938	-49.537060
6367.187500	-49.601604
6368.164062	-51.475624
6369.140625	-51.689774
6370.117188	-50.459137
6371.093750	-50.864246
6372.070312	-50.099026
6373.046875	-52.848537
6374.023438	-51.614418
6375.000000	-48.057602
6375.976562	-49.714909
6376.953125	-50.213486
6377.929688	-49.726353
6378.906250	-49.428291
6379.882812	-52.461163
6380.859375	-51.710323
6381.835938	-51.119778
6382.812500	-48.969856
6383.789062	-48.154732
6384.765625	-46.698605
6385.742188	-49.356113
6386.718750	-50.923702
6387.695312	-50.914864
6388.671875	-51.268158
6389.648438	-51.543346
6390.625000	-50.986122
6391.601562	-49.521187
6392.578125	-51.596455
6393.554688	-50.760715
6394.531250	-50.518539
6395.507812	-50.244617
6396.484375	-50.349400
6397.460938	-48.940643
6398.437500	-49.533466
6399.414062	-51.411072
6400.390625	-48.906525
6401.367188	-48.138298
6402.343750	-49.267094
6403.320312	-50.575459
6404.296875	-49.646309
6405.273438	-50.172184
6406.250000	-47.651936
6407.226562	-49.237724
6408.203125	-48.389431
6409.179688	-50.206841
6410.156250	-50.454796
6411.132812	-50.199467
6412.109375	-51.206070
6413.085938	-50.685806
6414.062500	-51.198215
6415.039062	-51.278225
6416.015625	-49.502377
6416.992188	-48.664860
6417.968750	-50.606533
6418.945312	-50.034714
6419.921875	-49.904324
6420.898438	-48.610100
6421.875000	-49.478710
6422.851562	-50.607906
6423.828125	-50.791374
6424.804688	-51.493153
6425.781250	-49.155838
6426.757812	-50.516758
6427.734375	-52.131622
6428.710938	-50.221611
6429.687500	-48.601082
6430.664062	-49.792801
6431.640625	-50.176777
6432.617188	-50.810818
6433.593750	-49.921486
6434.570312	-50.256638
6435.546875	-50.217087
6436.523438	-51.119808
6437.500000	-50.027554
6438.476562	-50.307873
6439.453125	-50.104855
6440.429688	-49.680004
6441.406250	-52.418663
6442.382812	-49.293785
6443.359375	-49.104050
6444.335938	-50.264862
6445.312500	-49.418766
6446.289062	-50.339832
6447.265625	-52.283653
6448.242188	-51.722828
6449.218750	-48.971992
6450.195312	-50.186371
6451.171875	-50.738712
6452.148438	-49.007389
6453.125000	-50.120377
6454.101562	-50.357105
6455.078125	-48.933498
6456.054688	-48.137905
6457.031250	-50.227432
6458.007812	-50.037075
6458.984375	-49.498650
6459.960938	-50.857502
6460.937500	-49.936348
6461.914062	-50.019230
6462.890625	-51.856052
6463.867188	-51.253792
6464.843750	-50.537212
6465.820312	-50.939346
6466.796875	-50.355206
6467.773438	-51.887260
6468.750000	-50.408741
6469.726562	-49.600788
6470.703125	-50.400406
6471.679688	-50.849770
6472.656250	-50.602528
6473.632812	-50.216301
6474.609375	-49.770924
6475.585938	-50.612045
6476.562500	-49.588043
6477.539062	-50.047562
6478.515625	-50.849922
6479.492188	-50.501476
6480.468750	-52.653984
6481.445312	-49.929508
6482.421875	-49.871460
6483.398438	-50.771393
6484.375000	-51.133762
6485.351562	-50.563805
6486.328125	-50.564735
6487.304688	-49.021347
6488.281250	-50.872322
6489.257812	-49.995850
6490.234375	-50.680962
6491.210938	-50.226486
6492.187500	-50.129318
6493.164062	-50.765491
6494.140625	-51.436981
6495.117188	-51.402607
6496.093750	-50.639107
6497.070312	-50.554951
6498.046875	-51.835323
6499.023438	-50.525658
6500.000000	-48.822552
6500.976562	-50.582897
6501.953125	-51.845970
6502.929688	-50.104767
6503.906250	-50.420704
6504.882812	-50.527771
6505.859375	-50.337032
6506.835938	-50.536602
6507.812500	-50.339836
6508.789062	-50.387909
6509.765625	-50.755615
6510.742188	-49.984711
6511.718750	-49.503910
6512.695312	-50.806042
6513.671875	-51.989193
6514.648438	-52.963062
6515.625000	-51.728489
6516.601562	-50.540951
6517.578125	-51.051159
6518.554688	-49.625465
6519.531250	-48.979263
6520.507812	-50.007935
6521.484375	-49.959278
6522.460938	-48.990891
6523.437500	-49.449650
6524.414062	-50.610325
6525.390625	-50.912121
6526.367188	-50.317657
6527.343750	-48.473610
6528.320312	-48.980488
6529.296875	-50.495010
6530.273438	-50.687775
6531.250000	-50.118706
6532.226562	-48.287788
6533.203125	-47.571072
6534.179688	-49.861195
6535.156250	-51.283604
6536.132812	-50.866375
6537.109375	-51.759052
6538.085938	-51.063862
6539.062500	-49.691277
6540.039062	-51.943584
6541.015625	-49.473267
6541.992188	-47.903660
6542.968750	-49.452740
6543.945312	-48.128693
6544.921875	-49.317242
6545.898438	-48.117737
6546.875000	-48.480907
6547.851562	-50.114437
6548.828125	-50.501003
6549.804688	-48.161053
6550.781250	-49.159275
6551.757812	-49.746231
6552.734375	-49.241390
6553.710938	-49.586784
6554.687500	-48.016827
6555.664062	-49.992813
6556.640625	-50.761612
6557.617188	-50.991333
6558.593750	-50.655136
6559.570312	-48.354603
6560.546875	-46.693642
6561.523438	-48.243469
6562.500000	-51.728607
6563.476562	-49.746899
6564.453125	-50.936707
6565.429688	-48.923779
6566.406250	-47.978870
6567.382812	-50.459335
6568.359375	-47.391953
6569.335938	-48.461334
6570.312500	-47.863792
6571.289062	-47.421524
6572.265625	-47.947971
6573.242188	-46.975491
6574.218750	-47.680168
6575.195312	-49.016998
6576.171875	-48.538620
6577.148438	-47.762386
6578.125000	-48.636604
6579.101562	-49.229980
6580.078125	-49.465969
6581.054688	-48.475292
6582.031250	-48.767536
6583.007812	-48.548679
6583.984375	-50.728851
6584.960938	-51.818722
6585.937500	-49.528439
6586.914062	-48.255478
6587.890625	-46.563194
6588.867188	-48.963387
6589.843750	-49.859535
6590.820312	-49.661392
6591.796875	-47.288479
6592.773438	-46.250847
6593.750000	-47.092175
6594.726562	-47.935276
6595.703125	-46.436916
6596.679688	-48.301659
6597.656250	-49.084961
6598.632812	-49.019360
6599.609375	-49.493134
6600.585938	-48.559834
6601.562500	-50.013584
6602.539062	-50.164169
6603.515625	-49.264206
6604.492188	-48.047329
6605.468750	-49.192261
6606.445312	-49.586037
6607.421875	-51.406769
6608.398438	-47.080387
6609.375000	-45.771095
6610.351562	-46.459904
6611.328125	-49.912476
6612.304688	-49.067497
6613.281250	-48.224533
6614.257812	-46.178410
6615.234375	-46.067974
6616.210938	-46.814945
6617.187500	-48.876713
6618.164062	-47.395462
6619.140625	-47.790089
6620.117188	-48.077919
6621.093750	-46.751072
6622.070312	-48.029655
6623.046875	-50.150955
6624.023438	-49.598225
6625.000000	-47.892506
6625.976562	-46.540245
6626.953125	-46.544827
6627.929688	-47.164101
6628.906250	-48.513855
6629.882812	-47.268066
6630.859375	-46.057045
6631.835938	-47.147362
6632.812500	-48.082497
6633.789062	-48.482109
6634.765625	-49.716591
6635.742188	-49.350185
6636.718750	-48.362480
6637.695312	-47.055996
6638.671875	-45.522549
6639.648438	-48.035641
6640.625000	-48.013065
6641.601562	-48.497322
6642.578125	-49.398468
6643.554688	-49.141640
6644.531250	-46.871555
6645.507812	-46.227921
6646.484375	-46.280266
6647.460938	-46.409431
6648.437500	-47.144211
6649.414062	-47.335686
6650.390625	-47.315193
6651.367188	-46.994862
6652.343750	-47.233753
6653.320312	-46.947571
6654.296875	-47.349289
6655.273438	-48.518921
6656.250000	-49.759167
6657.226562	-47.414928
6658.203125	-46.380039
6659.179688	-48.571857
6660.156250	-47.066666
6661.132812	-48.336288
6662.109375	-47.363453
6663.085938	-48.860863
6664.062500	-48.816525
6665.039062	-47.805569
6666.015625	-48.929317
6666.992188	-48.245590
6667.968750	-48.576298
6668.945312	-48.736572
6669.921875	-47.711746
6670.898438	-45.800831
6671.875000	-46.607830
6672.851562	-44.921413
6673.828125	-46.033863
6674.804688	-48.256847
6675.781250	-47.806740
6676.757812	-46.898960
6677.734375	-45.549824
6678.710938	-47.886169
6679.687500	-48.205097
6680.664062	-47.509670
6681.640625	-47.971062
6682.617188	-48.810337
6683.593750	-48.369347
6684.570312	-49.291191
6685.546875	-49.478970
6686.523438	-48.644577
6687.500000	-47.373795
6688.476562	-48.407188
6689.453125	-48.020611
6690.429688	-46.326435
6691.406250	-47.484314
6692.382812	-46.801704
6693.359375	-46.048218
6694.335938	-47.651630
6695.312500	-45.545635
6696.289062	-45.124096
6697.265625	-47.462372
6698.242188	-46.326069
6699.218750	-46.964153
6700.195312	-46.261185
6701.171875	-47.662415
6702.148438	-48.654377
6703.125000	-46.625362
6704.101562	-46.404621
6705.078125	-46.418480
6706.054688	-44.616413
6707.031250	-46.504913
6708.007812	-47.640793
6708.984375	-46.870651
6709.960938	-46.936073
6710.937500	-46.550449
6711.914062	-45.661934
6712.890625	-48.276649
6713.867188	-47.733528
6714.843750	-48.791363
6715.820312	-45.790936
6716.796875	-47.165367
6717.773438	-46.974194
6718.750000	-45.941109
6719.726562	-45.077202
6720.703125	-47.143459
6721.679688	-47.799019
6722.656250	-47.629848
6723.632812	-47.116283
6724.609375	-45.932716
6725.585938	-49.243004
6726.562500	-45.174000
6727.539062	-46.873093
6728.515625	-45.006157
6729.492188	-44.982105
6730.468750	-45.657448
6731.445312	-47.547279
6732.421875	-45.891068
6733.398438	-46.039562
6734.375000	-45.846882
6735.351562	-46.633419
6736.328125	-46.626907
6737.304688	-46.270615
6738.281250	-44.644081
6739.257812	-47.109474
6740.234375	-45.939205
6741.210938	-46.501892
6742.187500	-46.768711
6743.164062	-46.556072
6744.140625	-45.608574
6745.117188	-46.671223
6746.093750	-46.098587
6747.070312	-47.311920
6748.046875	-47.299480
6749.023438	-45.423927
6750.000000	-44.095493
6750.976562	-43.046284
6751.953125	-45.017323
6752.929688	-44.167076
6753.906250	-45.489895
6754.882812	-45.769463
6755.859375	-45.284843
6756.835938	-45.080524
6757.812500	-46.142365
6758.789062	-45.140903
6759.765625	-45.771400
6760.742188	-46.781178
6761.718750	-46.273064
6762.695312	-46.032509
6763.671875	-43.497986
6764.648438	-44.695221
6765.625000	-45.470089
6766.601562	-46.842449
6767.578125	-48.139687
6768.554688	-46.499557
6769.531250	-47.147697
6770.507812	-45.349854
6771.484375	-45.208378
6772.460938	-45.651627
6773.437500	-45.093212
6774.414062	-47.510448
6775.390625	-44.386299
6776.367188	-45.193230
6777.343750	-45.012436
6778.320312	-47.280994
6779.296875	-46.090950
6780.273438	-46.542500
6781.250000	-45.821648
6782.226562	-44.895096
6783.203125	-45.627563
6784.179688	-46.544834
6785.156250	-44.415276
6786.132812	-44.322151
6787.109375	-45.118793
6788.085938	-46.202812
6789.062500	-44.844402
6790.039062	-44.386444
6791.015625	-45.807690
6791.992188	-46.007977
6792.968750	-46.076687
6793.945312	-46.183334
6794.921875	-44.692532
6795.898438	-44.620575
6796.875000	-45.387165
6797.851562	-46.068539
6798.828125	-46.150776
6799.804688	-46.049496
6800.781250	-46.701622
6801.757812	-46.442059
6802.734375	-46.248947
6803.710938	-45.325161
6804.687500	-45.309258
6805.664062	-44.132435
6806.640625	-45.991337
6807.617188	-45.829956
6808.593750	-45.637707
6809.570312	-45.296810
6810.546875	-45.160217
6811.523438	-45.251732
6812.500000	-43.540550
6813.476562	-45.998753
6814.453125	-46.605789
6815.429688	-45.142189
6816.406250	-45.948349
6817.382812	-44.685162
6818.359375	-45.532337
6819.335938	-46.582157
6820.312500	-46.046265
6821.289062	-46.931427
6822.265625	-46.207138
6823.242188	-46.057549
6824.218750	-44.981384
6825.195312	-45.607555
6826.171875	-45.958504
6827.148438	-44.373920
6828.125000	-48.271751
6829.101562	-47.407158
6830.078125	-45.806271
6831.054688	-44.538353
6832.031250	-43.691929
6833.007812	-44.231647
6833.984375	-45.235989
6834.960938	-46.224148
6835.937500	-46.021183
6836.914062	-45.145309
6837.890625	-43.173027
6838.867188	-44.970699
6839.843750	-44.952347
6840.820312	-45.775208
6841.796875	-45.094196
6842.773438	-46.633858
6843.750000	-47.238579
6844.726562	-46.454361
6845.703125	-45.302696
6846.679688	-47.147999
6847.656250	-45.190681
6848.632812	-45.878071
6849.609375	-46.171799
6850.585938	-45.467236
6851.562500	-46.663940
6852.539062	-46.476669
6853.515625	-45.095951
6854.492188	-44.357716
6855.468750	-45.454712
6856.445312	-46.881104
6857.421875	-46.906864
6858.398438	-45.805851
6859.375000	-46.278118
6860.351562	-44.434002
6861.328125	-47.251114
6862.304688	-45.851254
6863.281250	-45.939774
6864.257812	-46.190590
6865.234375	-46.651131
6866.210938	-47.040535
6867.187500	-47.576885
6868.164062	-46.431133
6869.140625	-46.938869
6870.117188	-47.253227
6871.093750	-47.499611
6872.070312	-46.367702
6873.046875	-43.930016
6874.023438	-44.497902
6875.000000	-43.234825
6875.976562	-44.100925
6876.953125	-46.495724
6877.929688	-46.989174
6878.906250	-46.449364
6879.882812	-45.854527
6880.859375	-44.376663
6881.835938	-46.021545
6882.812500	-46.111855
6883.789062	-46.277077
6884.765625	-46.376644
6885.742188	-46.879944
6886.718750	-44.520977
6887.695312	-45.525036
6888.671875	-47.254025
6889.648438	-45.734558
6890.625000	-46.403316
6891.601562	-45.150753
6892.578125	-43.653839
6893.554688	-46.427559
6894.531250	-47.994606
6895.507812	-46.133293
6896.484375	-45.605488
6897.460938	-44.683804
6898.437500	-44.854469
6899.414062	-44.671467
6900.390625	-48.562042
6901.367188	-48.628685
6902.343750	-48.470726
6903.320312	-46.706203
6904.296875	-45.253052
6905.273438	-46.451824
6906.250000	-47.130737
6907.226562	-48.190296
6908.203125	-46.590729
6909.179688	-48.154850
6910.156250	-48.583416
6911.132812	-46.603035
6912.109375	-47.484577
6913.085938	-46.504890
6914.062500	-46.210453
6915.039062	-44.634739
6916.015625	-45.430538
6916.992188	-45.222187
6917.968750	-45.214027
6918.945312	-46.729855
6919.921875	-46.119816
6920.898438	-46.088417
6921.875000	-46.414989
6922.851562	-47.139698
6923.828125	-47.087532
6924.804688	-46.877178
6925.781250	-48.238487
6926.757812	-47.038006
6927.734375	-48.218182
6928.710938	-48.200615
6929.687500	-47.402138
6930.664062	-47.971687
6931.640625	-47.454880
6932.617188	-45.778614
6933.593750	-47.502617
6934.570312	-48.458790
6935.546875	-47.954872
6936.523438	-48.220615
6937.500000	-48.119179
6938.476562	-46.131802
6939.453125	-46.086311
6940.429688	-45.339901
6941.406250	-46.202259
6942.382812	-45.648746
6943.359375	-45.628712
6944.335938	-45.061943
6945.312500	-45.690109
6946.289062	-45.686066
6947.265625	-46.280643
6948.242188	-46.440063
6949.218750	-46.032509
6950.195312	-48.090340
6951.171875	-47.514214
6952.148438	-47.292778
6953.125000	-48.731411
6954.101562	-46.277241
6955.078125	-47.905544
6956.054688	-48.914875
6957.031250	-48.228947
6958.007812	-47.743202
6958.984375	-47.684448
6959.960938	-48.750927
6960.937500	-47.827847
6961.914062	-46.595554
6962.890625	-46.313236
6963.867188	-46.961384
6964.843750	-46.391953
6965.820312	-46.615555
6966.796875	-45.655342
6967.773438	-45.289688
6968.750000	-46.352695
6969.726562	-46.723766
6970.703125	-46.897232
6971.679688	-47.466320
6972.656250	-47.531574
6973.632812	-47.750751
6974.609375	-47.078922
6975.585938	-46.550602
6976.562500	-46.832909
6977.539062	-47.631420
6978.515625	-48.928562
6979.492188	-47.709900
6980.468750	-48.515518
6981.445312	-48.036198
6982.421875	-48.188793
6983.398438	-48.606857
6984.375000	-48.696037
6985.351562	-49.271294
6986.328125	-47.928131
6987.304688	-49.061478
6988.281250	-48.148342
6989.257812	-47.408955
6990.234375	-48.276310
6991.210938	-47.591053
6992.187500	-46.209587
6993.164062	-46.710701
6994.140625	-47.184860
6995.117188	-47.283966
6996.093750	-46.844128
6997.070312	-47.747368
6998.046875	-47.287605
6999.023438	-48.066746
7000.000000	-47.823570
7000.976562	-48.686089
7001.953125	-48.239586
7002.929688	-47.993969
7003.906250	-47.596352
7004.882812	-47.788425
7005.859375	-47.866600
7006.835938	-48.591702
7007.812500	-49.755932
7008.789062	-51.030132
7009.765625	-48.798393
7010.742188	-50.247391
7011.718750	-49.412895
7012.695312	-48.082382
7013.671875	-47.326267
7014.648438	-46.899372
7015.625000	-46.736843
7016.601562	-46.267826
7017.578125	-46.911251
7018.554688	-48.433765
7019.531250	-48.401718
7020.507812	-49.241779
7021.484375	-49.319321
7022.460938	-49.273556
7023.437500	-49.093410
7024.414062	-48.987450
7025.390625	-47.524452
7026.367188	-48.478680
7027.343750	-48.177891
7028.320312	-47.217094
7029.296875	-51.028481
7030.273438	-51.289474
7031.250000	-50.820896
7032.226562	-49.545155
7033.203125	-51.478451
7034.179688	-49.676342
7035.156250	-48.166195
7036.132812	-47.330795
7037.109375	-47.811050
7038.085938	-47.515007
7039.062500	-46.919804
7040.039062	-47.779259
7041.015625	-48.736946
7041.992188	-49.599308
7042.968750	-50.254601
7043.945312	-50.799911
7044.921875	-50.018070
7045.898438	-49.035828
7046.875000	-47.534698
7047.851562	-48.106945
7048.828125	-47.704712
7049.804688	-48.078732
7050.781250	-48.068718
7051.757812	-48.873066
7052.734375	-49.248600
7053.710938	-48.162994
7054.687500	-48.282490
7055.664062	-48.564289
7056.640625	-48.924698
7057.617188	-49.904602
7058.593750	-51.569759
7059.570312	-50.369381
7060.546875	-50.115200
7061.523438	-49.492268
7062.500000	-49.078632
7063.476562	-48.402252
7064.453125	-47.865719
7065.429688	-48.902344
7066.406250	-49.535381
7067.382812	-50.490295
7068.359375	-50.910725
7069.335938	-48.750755
7070.312500	-49.031040
7071.289062	-49.108147
7072.265625	-49.085136
7073.242188	-48.980312
7074.218750	-48.398560
7075.195312	-47.731300
7076.171875	-48.427856
7077.148438	-48.210865
7078.125000	-48.733013
7079.101562	-49.259632
7080.078125	-48.737175
7081.054688	-48.053326
7082.031250	-48.896427
7083.007812	-49.213432
7083.984375	-49.752869
7084.960938	-51.076584
7085.937500	-51.729282
7086.914062	-49.541214
7087.890625	-48.744587
7088.867188	-50.098930
7089.843750	-50.050011
7090.820312	-48.413551
7091.796875	-47.729286
7092.773438	-48.097393
7093.750000	-49.745743
7094.726562	-49.709393
7095.703125	-51.039135
7096.679688	-50.102882
7097.656250	-51.291271
7098.632812	-51.609821
7099.609375	-50.403366
7100.585938	-49.276764
7101.562500	-49.528019
7102.539062	-48.389828
7103.515625	-49.028141
7104.492188	-48.222366
7105.468750	-48.272251
7106.445312	-48.869030
7107.421875	-49.291336
7108.398438	-48.669174
7109.375000	-49.764923
7110.351562	-50.128437
7111.328125	-48.948036
7112.304688	-49.515934
7113.281250	-50.339668
7114.257812	-50.664532
7115.234375	-50.296482
7116.210938	-49.125725
7117.187500	-49.166649
7118.164062	-49.993526
7119.140625	-49.944382
7120.117188	-49.995770
7121.093750	-49.656349
7122.070312	-50.150421
7123.046875	-50.105705
7124.023438	-51.272335
7125.000000	-51.706577
7125.976562	-51.278229
7126.953125	-50.427563
7127.929688	-49.908051
7128.906250	-50.770267
7129.882812	-50.927780
7130.859375	-50.568981
7131.835938	-50.650658
7132.812500	-49.717064
7133.789062	-51.073658
7134.765625	-49.890827
7135.742188	-47.346294
7136.718750	-48.963120
7137.695312	-50.035854
7138.671875	-50.016426
7139.648438	-49.441380
7140.625000	-49.453865
7141.601562	-52.319496
7142.578125	-51.693027
7143.554688	-50.367085
7144.531250	-50.397709
7145.507812	-50.137917
7146.484375	-50.494900
7147.460938	-49.584148
7148.437500	-49.965263
7149.414062	-49.993885
7150.390625	-50.672710
7151.367188	-50.906048
7152.343750	-50.312115
7153.320312	-50.828747
7154.296875	-50.708775
7155.273438	-50.755768
7156.250000	-51.585346
7157.226562	-50.444355
7158.203125	-51.340427
7159.179688	-51.841438
7160.156250	-51.429295
7161.132812	-49.904610
7162.109375	-50.512630
7163.085938	-52.362282
7164.062500	-49.369328
7165.039062	-48.980259
7166.015625	-49.320534
7166.992188	-49.386463
7167.968750	-50.382050
7168.945312	-49.613926
7169.921875	-50.136200
7170.898438	-50.994038
7171.875000	-52.073929
7172.851562	-51.978676
7173.828125	-51.169090
7174.804688	-51.526451
7175.781250	-50.913822
7176.757812	-51.022820
7177.734375	-51.801006
7178.710938	-49.646420
7179.687500	-50.492619
7180.664062	-50.693615
7181.640625	-51.118652
7182.617188	-50.496368
7183.593750	-49.245686
7184.570312	-49.786392
7185.546875	-50.196323
7186.523438	-50.858597
7187.500000	-52.124901
7188.476562	-52.392570
7189.453125	-52.132645
7190.429688	-52.416817
7191.406250	-52.208183
7192.382812	-54.110130
7193.359375	-51.228497
7194.335938	-49.845253
7195.312500	-49.935726
7196.289062	-50.287487
7197.265625	-51.540028
7198.242188	-52.162613
7199.218750	-51.249954
7200.195312	-50.570465
7201.171875	-49.787857
7202.148438	-49.717270
7203.125000	-51.020367
7204.101562	-51.929611
7205.078125	-51.694744
7206.054688	-50.696381
7207.031250	-51.442856
7208.007812	-51.966850
7208.984375	-49.903404
7209.960938	-50.526192
7210.937500	-51.016361
7211.914062	-50.739620
7212.890625	-50.564919
7213.867188	-51.836391
7214.843750	-52.039734
7215.820312	-51.887894
7216.796875	-51.994667
7217.773438	-51.570843
7218.750000	-51.914776
7219.726562	-52.078079
7220.703125	-51.471485
7221.679688	-50.815735
7222.656250	-51.086010
7223.632812	-51.052380
7224.609375	-50.610332
7225.585938	-49.371521
7226.562500	-49.895916
7227.539062	-52.938320
7228.515625	-52.237968
7229.492188	-51.622120
7230.468750	-51.142883
7231.445312	-50.318832
7232.421875	-50.650536
7233.398438	-51.533554
7234.375000	-51.368786
7235.351562	-51.198124
7236.328125	-51.827999
7237.304688	-51.106358
7238.281250	-51.083595
7239.257812	-50.386154
7240.234375	-51.060150
7241.210938	-51.150730
7242.187500	-50.528431
7243.164062	-51.920246
7244.140625	-53.014797
7245.117188	-52.235325
7246.093750	-52.441620
7247.070312	-52.820992
7248.046875	-51.721806
7249.023438	-51.669888
7250.000000	-50.495476
7250.976562	-51.111553
7251.953125	-50.856564
7252.929688	-50.537785
7253.906250	-52.068935
7254.882812	-50.607853
7255.859375	-50.449043
7256.835938	-51.365303
7257.812500	-50.866467
7258.789062	-51.379402
7259.765625	-51.333447
7260.742188	-51.320343
7261.718750	-52.414341
7262.695312	-53.040131
7263.671875	-55.065632
7264.648438	-54.286983
7265.625000	-53.763721
7266.601562	-51.485485
7267.578125	-51.903877
7268.554688	-50.589973
7269.531250	-50.360718
7270.507812	-51.437977
7271.484375	-51.664162
7272.460938	-51.759617
7273.437500	-51.186588
7274.414062	-52.522213
7275.390625	-52.526829
7276.367188	-51.893295
7277.343750	-50.658134
7278.320312	-50.968643
7279.296875	-51.754326
7280.273438	-51.236588
7281.250000	-53.325863
7282.226562	-51.560303
7283.203125	-51.597290
7284.179688	-52.140717
7285.156250	-51.968330
7286.132812	-52.317734
7287.109375	-52.198223
7288.085938	-51.764858
7289.062500	-52.364132
7290.039062	-52.754852
7291.015625	-52.198696
7291.992188	-52.106339
7292.968750	-53.937386
7293.945312	-53.795792
7294.921875	-53.967800
7295.898438	-53.329792
7296.875000	-52.399094
7297.851562	-50.685719
7298.828125	-51.023331
7299.804688	-50.708790
7300.781250	-50.821846
7301.757812	-50.588108
7302.734375	-50.491840
7303.710938	-50.799217
7304.687500	-51.461437
7305.664062	-52.129288
7306.640625	-52.481327
7307.617188	-54.218441
7308.593750	-52.790596
7309.570312	-52.650326
7310.546875	-53.492611
7311.523438	-52.826347
7312.500000	-52.440514
7313.476562	-51.807247
7314.453125	-53.286057
7315.429688	-52.791672
7316.406250	-51.986771
7317.382812	-50.809071
7318.359375	-51.694412
7319.335938	-52.314575
7320.312500	-51.439667
7321.289062	-51.905071
7322.265625	-50.804348
7323.242188	-51.602573
7324.218750	-54.177158
7325.195312	-55.800491
7326.171875	-53.748074
7327.148438	-53.378708
7328.125000	-52.583076
7329.101562	-51.235611
7330.078125	-51.976498
7331.054688	-49.879524
7332.031250	-51.082108
7333.007812	-52.692608
7333.984375	-52.003300
7334.960938	-52.677128
7335.937500	-52.317982
7336.914062	-51.567181
7337.890625	-53.331238
7338.867188	-53.881870
7339.843750	-51.861343
7340.820312	-51.801186
7341.796875	-52.510662
7342.773438	-52.675438
7343.750000	-52.851044
7344.726562	-53.540916
7345.703125	-52.868523
7346.679688	-51.572655
7347.656250	-51.679817
7348.632812	-52.284199
7349.609375	-52.315857
7350.585938	-52.603195
7351.562500	-53.281349
7352.539062	-52.244858
7353.515625	-52.104519
7354.492188	-52.631256
7355.468750	-52.062160
7356.445312	-51.323433
7357.421875	-52.393208
7358.398438	-52.354523
7359.375000	-53.658829
7360.351562	-50.990311
7361.328125	-51.973557
7362.304688	-52.787949
7363.281250	-52.232414
7364.257812	-53.005413
7365.234375	-51.625389
7366.210938	-53.053402
7367.187500	-53.400940
7368.164062	-51.674274
7369.140625	-52.143856
7370.117188	-52.375217
7371.093750	-51.197514
7372.070312	-51.482529
7373.046875	-52.022644
7374.023438	-51.458336
7375.000000	-51.954910
7375.976562	-52.433758
7376.953125	-53.125366
7377.929688	-53.122471
7378.906250	-53.944931
7379.882812	-52.991722
7380.859375	-53.231754
7381.835938	-52.927464
7382.812500	-52.890564
7383.789062	-53.750031
7384.765625	-54.383636
7385.742188	-53.318295
7386.718750	-53.185833
7387.695312	-52.893291
7388.671875	-53.580685
7389.648438	-52.496750
7390.625000	-50.666100
7391.601562	-50.698910
7392.578125	-52.173351
7393.554688	-52.759476
7394.531250	-51.656425
7395.507812	-52.946335
7396.484375	-52.083485
7397.460938	-52.247868
7398.437500	-53.581760
7399.414062	-53.479950
7400.390625	-52.906895
7401.367188	-52.586449
7402.343750	-53.701424
7403.320312	-53.508465
7404.296875	-52.862057
7405.273438	-52.743938
7406.250000	-53.898273
7407.226562	-53.439293
7408.203125	-52.391788
7409.179688	-52.635147
7410.156250	-53.066032
7411.132812	-53.549946
7412.109375	-53.592003
7413.085938	-51.484219
7414.062500	-51.933399
7415.039062	-52.855366
7416.015625	-53.959175
7416.992188	-54.706757
7417.968750	-53.702145
7418.945312	-52.655075
7419.921875	-53.004124
7420.898438	-52.382210
7421.875000	-52.742031
7422.851562	-52.797680
7423.828125	-53.164410
7424.804688	-52.862759
7425.781250	-53.967995
7426.757812	-54.134354
7427.734375	-53.023857
7428.710938	-54.667629
7429.687500	-54.326431
7430.664062	-51.974545
7431.640625	-53.205013
7432.617188	-53.198624
7433.593750	-52.467152
7434.570312	-52.652622
7435.546875	-53.772587
7436.523438	-53.770714
7437.500000	-52.770756
7438.476562	-52.700024
7439.453125	-52.080437
7440.429688	-52.549328
7441.406250	-53.512650
7442.382812	-54.985828
7443.359375	-53.395191
7444.335938	-52.033272
7445.312500	-53.091827
7446.289062	-52.889225
7447.265625	-51.794060
7448.242188	-53.738716
7449.218750	-54.669422
7450.195312	-52.451702
7451.171875	-53.360592
7452.148438	-52.697250
7453.125000	-50.904221
7454.101562	-53.514458
7455.078125	-53.275665
7456.054688	-52.099018
7457.031250	-52.849579
7458.007812	-52.809532
7458.984375	-54.179340
7459.960938	-51.845947
7460.937500	-53.237564
7461.914062	-53.407612
7462.890625	-54.381527
7463.867188	-53.871712
7464.843750	-54.277695
7465.820312	-54.299538
7466.796875	-54.654308
7467.773438	-53.049133
7468.750000	-54.483032
7469.726562	-54.510601
7470.703125	-53.578926
7471.679688	-54.032890
7472.656250	-52.243889
7473.632812	-53.631790
7474.609375	-54.278759
7475.585938	-53.616508
7476.562500	-54.830254
7477.539062	-52.895306
7478.515625	-51.556049
7479.492188	-51.454185
7480.468750	-53.619759
7481.445312	-53.973541
7482.421875	-52.930351
7483.398438	-53.628689
7484.375000	-54.038616
7485.351562	-54.332363
7486.328125	-55.220432
7487.304688	-55.014683
7488.281250	-54.146053
7489.257812	-53.306374
7490.234375	-54.545403
7491.210938	-54.824986
7492.187500	-54.516983
7493.164062	-55.351841
7494.140625	-56.471508
7495.117188	-55.773087
7496.093750	-54.048996
7497.070312	-54.778061
7498.046875	-54.976894
7499.023438	-55.353817
7500.000000	-54.019634
7500.976562	-55.223183
7501.953125	-54.883152
7502.929688	-54.445465
7503.906250	-54.669727
7504.882812	-53.495438
7505.859375	-52.796757
7506.835938	-53.578529
7507.812500	-53.641323
7508.789062	-54.485767
7509.765625	-55.629158
7510.742188	-54.901951
7511.718750	-54.248135
7512.695312	-56.740383
7513.671875	-55.529060
7514.648438	-54.733814
7515.625000	-56.268341
7516.601562	-56.553989
7517.578125	-54.156914
7518.554688	-56.251259
7519.531250	-56.806713
7520.507812	-57.038227
7521.484375	-55.247391
7522.460938	-53.435070
7523.437500	-53.816776
7524.414062	-55.300240
7525.390625	-55.914928
7526.367188	-55.252968
7527.343750	-55.877552
7528.320312	-56.145496
7529.296875	-55.809326
7530.273438	-54.706760
7531.250000	-55.147964
7532.226562	-54.341282
7533.203125	-53.882404
7534.179688	-52.766785
7535.156250	-55.211037
7536.132812	-55.234043
7537.109375	-55.207947
7538.085938	-57.777527
7539.062500	-55.433659
7540.039062	-56.064648
7541.015625	-55.118553
7541.992188	-55.532131
7542.968750	-55.957760
7543.945312	-55.501518
7544.921875	-57.268009
7545.898438	-57.624672
7546.875000	-55.358524
7547.851562	-55.399780
7548.828125	-56.324368
7549.804688	-56.806767
7550.781250	-56.438961
7551.757812	-55.960995
7552.734375	-56.926884
7553.710938	-56.388290
7554.687500	-55.924057
7555.664062	-54.444946
7556.640625	-56.204464
7557.617188	-55.564610
7558.593750	-55.163898
7559.570312	-55.841679
7560.546875	-55.068966
7561.523438	-55.336288
7562.500000	-55.404972
7563.476562	-57.417152
7564.453125	-57.718548
7565.429688	-56.991177
7566.406250	-56.304840
7567.382812	-55.321533
7568.359375	-57.890526
7569.335938	-60.421291
7570.312500	-58.038307
7571.289062	-59.978531
7572.265625	-58.844704
7573.242188	-57.454960
7574.218750	-57.253624
7575.195312	-57.476139
7576.171875	-56.380348
7577.148438	-55.667286
7578.125000	-57.532433
7579.101562	-58.099422
7580.078125	-57.667614
7581.054688	-56.847668
7582.031250	-57.876534
7583.007812	-56.830963
7583.984375	-57.784386
7584.960938	-57.442326
7585.937500	-56.605568
7586.914062	-56.551750
7587.890625	-55.753464
7588.867188	-56.908264
7589.843750	-56.952751
7590.820312	-56.374771
7591.796875	-58.000282
7592.773438	-57.945324
7593.750000	-58.049313
7594.726562	-57.225239
7595.703125	-57.576447
7596.679688	-57.884148
7597.656250	-55.979984
7598.632812	-57.271263
7599.609375	-58.082504
7600.585938	-56.369488
7601.562500	-57.779484
7602.539062	-58.441177
7603.515625	-58.673019
7604.492188	-58.721340
7605.468750	-57.753120
7606.445312	-55.950336
7607.421875	-55.602489
7608.398438	-57.960499
7609.375000	-57.654015
7610.351562	-56.773838
7611.328125	-57.201221
7612.304688	-57.727268
7613.281250	-58.016323
7614.257812	-58.703503
7615.234375	-59.105579
7616.210938	-59.072456
7617.187500	-57.829395
7618.164062	-56.817848
7619.140625	-57.733128
7620.117188	-59.328121
7621.093750	-59.960491
7622.070312	-60.192619
7623.046875	-60.198032
7624.023438	-59.384407
7625.000000	-59.750919
7625.976562	-58.796780
7626.953125	-57.770805
7627.929688	-58.925224
7628.906250	-57.930054
7629.882812	-59.066738
7630.859375	-60.443371
7631.835938	-58.510521
7632.812500	-56.739254
7633.789062	-56.612858
7634.765625	-58.543251
7635.742188	-60.088676
7636.718750	-59.966793
7637.695312	-58.558578
7638.671875	-58.584145
7639.648438	-59.065941
7640.625000	-58.239841
7641.601562	-58.489819
7642.578125	-58.738167
7643.554688	-57.168587
7644.531250	-59.585133
7645.507812	-58.829262
7646.484375	-61.353191
7647.460938	-62.104580
7648.437500	-60.061821
7649.414062	-59.054668
7650.390625	-58.993610
7651.367188	-59.716019
7652.343750	-61.705315
7653.320312	-60.468872
7654.296875	-60.369846
7655.273438	-58.611931
7656.250000	-59.510143
7657.226562	-59.828197
7658.203125	-58.859001
7659.179688	-59.223320
7660.156250	-61.682018
7661.132812	-60.766232
7662.109375	-60.932625
7663.085938	-59.537022
7664.062500	-58.756054
7665.039062	-59.107063
7666.015625	-59.549946
7666.992188	-59.257442
7667.968750	-59.567123
7668.945312	-58.907448
7669.921875	-59.785667
7670.898438	-61.506485
7671.875000	-60.620659
7672.851562	-60.189907
7673.828125	-58.926281
7674.804688	-60.334572
7675.781250	-60.063995
7676.757812	-60.271725
7677.734375	-59.621471
7678.710938	-60.657829
7679.687500	-61.511223
7680.664062	-58.971027
7681.640625	-58.777931
7682.617188	-59.533749
7683.593750	-60.984154
7684.570312	-61.971867
7685.546875	-61.321747
7686.523438	-62.151932
7687.500000	-62.668289
7688.476562	-61.849895
7689.453125	-62.798271
7690.429688	-62.592091
7691.406250	-61.231571
7692.382812	-61.481014
7693.359375	-60.507530
7694.335938	-61.925835
7695.312500	-62.098373
7696.289062	-61.441216
7697.265625	-61.919037
7698.242188	-62.255939
7699.218750	-62.700371
7700.195312	-61.628082
7701.171875	-62.296921
7702.148438	-61.258232
7703.125000	-61.468204
7704.101562	-61.385429
7705.078125	-62.954159
7706.054688	-61.493839
7707.031250	-63.030861
7708.007812	-62.649429
7708.984375	-62.948292
7709.960938	-62.840229
7710.937500	-63.152153
7711.914062	-64.572205
7712.890625	-63.510799
7713.867188	-62.421028
7714.843750	-63.155823
7715.820312	-63.423721
7716.796875	-61.128441
7717.773438	-62.446655
7718.750000	-62.289001
7719.726562	-63.654732
7720.703125	-61.951561
7721.679688	-61.085712
7722.656250	-61.950191
7723.632812	-61.568359
7724.609375	-61.286179
7725.585938	-63.632698
7726.562500	-64.268349
7727.539062	-62.873669
7728.515625	-65.306564
7729.492188	-64.552902
7730.468750	-63.901382
7731.445312	-63.651436
7732.421875	-63.067867
7733.398438	-61.953285
7734.375000	-63.564259
7735.351562	-64.568184
7736.328125	-64.298584
7737.304688	-65.735413
7738.281250	-64.360344
7739.257812	-63.567089
7740.234375	-63.877625
7741.210938	-64.595245
7742.187500	-63.745796
7743.164062	-64.235153
7744.140625	-64.026367
7745.117188	-62.899700
7746.093750	-63.425739
7747.070312	-64.057144
7748.046875	-65.516815
7749.023438	-66.044670
7750.000000	-66.083611
7750.976562	-64.162560
7751.953125	-64.070969
7752.929688	-65.553413
7753.906250	-66.118591
7754.882812	-64.974808
7755.859375	-67.327728
7756.835938	-64.491455
7757.812500	-64.793549
7758.789062	-65.447952
7759.765625	-65.100327
7760.742188	-65.780487
7761.718750	-64.630417
7762.695312	-65.303024
7763.671875	-66.280609
7764.648438	-65.074135
7765.625000	-64.831650
7766.601562	-65.546494
7767.578125	-64.644409
7768.554688	-65.733444
7769.531250	-65.286850
7770.507812	-65.313339
7771.484375	-65.865562
7772.460938	-66.637184
7773.437500	-65.453270
7774.414062	-65.738213
7775.390625	-66.553612
7776.367188	-65.941093
7777.343750	-67.332893
7778.320312	-66.742363
7779.296875	-65.057991
7780.273438	-64.844597
7781.250000	-66.433189
7782.226562	-66.736938
7783.203125	-65.357506
7784.179688	-67.339821
7785.156250	-67.262489
7786.132812	-66.602600
7787.109375	-67.685852
7788.085938	-66.740685
7789.062500	-65.557236
7790.039062	-67.321129
7791.015625	-65.805763
7791.992188	-65.910751
7792.968750	-65.764702
7793.945312	-66.196831
7794.921875	-67.330307
7795.898438	-66.679214
7796.875000	-65.948456
7797.851562	-68.506531
7798.828125	-67.191467
7799.804688	-67.374245
7800.781250	-66.350983
7801.757812	-65.231461
7802.734375	-67.829285
7803.710938	-67.096184
7804.687500	-67.029961
7805.664062	-67.670502
7806.640625	-69.234642
7807.617188	-66.786285
7808.593750	-67.849396
7809.570312	-67.561737
7810.546875	-68.644081
7811.523438	-67.315422
7812.500000	-67.163086
7813.476562	-66.030159
7814.453125	-67.097389
7815.429688	-68.056808
7816.406250	-68.391144
7817.382812	-68.152710
7818.359375	-67.120354
7819.335938	-65.717506
7820.312500	-67.421463
7821.289062	-68.703979
7822.265625	-68.204002
7823.242188	-68.076454
7824.218750	-66.905792
7825.195312	-67.562706
7826.171875	-66.099617
7827.148438	-67.142700
7828.125000	-67.624344
7829.101562	-67.169365
7830.078125	-66.670906
7831.054688	-67.515099
7832.031250	-68.602699
7833.007812	-68.213402
7833.984375	-65.883743
7834.960938	-66.974792
7835.937500	-67.601677
7836.914062	-67.682930
7837.890625	-68.438850
7838.867188	-68.047562
7839.843750	-68.263969
7840.820312	-69.118782
7841.796875	-67.408546
7842.773438	-66.724411
7843.750000	-67.445480
7844.726562	-68.325729
7845.703125	-68.758057
7846.679688	-68.007660
7847.656250	-67.735794
7848.632812	-67.300789
7849.609375	-68.314621
7850.585938	-69.215584
7851.562500	-67.348000
7852.539062	-68.958672
7853.515625	-68.893700
7854.492188	-68.467720
7855.468750	-68.455460
7856.445312	-67.581993
7857.421875	-67.783478
7858.398438	-67.265831
7859.375000	-67.509819
7860.351562	-67.961311
7861.328125	-68.730392
7862.304688	-68.607826
7863.281250	-68.813370
7864.257812	-70.148529
7865.234375	-69.957619
7866.210938	-68.631874
7867.187500	-67.789101
7868.164062	-69.225342
7869.140625	-69.583412
7870.117188	-68.646477
7871.093750	-69.091377
7872.070312	-67.416359
7873.046875	-69.667549
7874.023438	-67.976288
7875.000000	-69.482285
7875.976562	-70.219620
7876.953125	-68.916306
7877.929688	-68.749809
7878.906250	-69.583931
7879.882812	-68.323967
7880.859375	-67.942177
7881.835938	-67.490295
7882.812500	-67.126648
7883.789062	-67.359520
7884.765625	-69.095428
7885.742188	-71.049988
7886.718750	-68.547211
7887.695312	-69.278900
7888.671875	-68.855423
7889.648438	-67.930695
7890.625000	-70.107338
7891.601562	-68.959610
7892.578125	-68.925179
7893.554688	-67.731209
7894.531250	-67.766617
7895.507812	-69.213173
7896.484375	-70.049179
7897.460938	-69.176392
7898.437500	-69.346207
7899.414062	-68.073380
7900.390625	-69.480759
7901.367188	-68.486038
7902.343750	-67.804550
7903.320312	-68.357521
7904.296875	-69.611366
7905.273438	-69.818024
7906.250000	-68.676880
7907.226562	-68.167717
7908.203125	-68.637390
7909.179688	-69.161453
7910.156250	-70.388359
7911.132812	-68.262032
7912.109375	-69.526031
7913.085938	-68.956726
7914.062500	-68.908363
7915.039062	-68.183510
7916.015625	-68.890396
7916.992188	-70.141319
7917.968750	-68.944801
7918.945312	-68.542038
7919.921875	-68.304512
7920.898438	-69.711182
7921.875000	-68.930359
7922.851562	-68.900345
7923.828125	-68.702637
7924.804688	-68.132111
7925.781250	-69.117332
7926.757812	-70.250763
7927.734375	-68.803268
7928.710938	-69.072121
7929.687500	-69.785057
7930.664062	-71.090454
7931.640625	-70.850105
7932.617188	-67.696693
7933.593750	-70.324379
7934.570312	-68.729492
7935.546875	-68.667313
7936.523438	-70.241669
7937.500000	-69.066376
7938.476562	-70.028397
7939.453125	-71.164688
7940.429688	-69.555855
7941.406250	-68.515175
7942.382812	-69.792900
7943.359375	-69.357925
7944.335938	-70.347328
7945.312500	-69.596626
7946.289062	-68.882103
7947.265625	-69.373871
7948.242188	-69.882790
7949.218750	-71.437569
7950.195312	-68.681770
7951.171875	-69.907387
7952.148438	-69.837257
7953.125000	-70.563614
7954.101562	-69.672340
7955.078125	-69.506760
7956.054688	-68.975700
7957.031250	-68.213341
7958.007812	-67.910652
7958.984375	-68.708862
7959.960938	-68.925644
7960.937500	-69.889061
7961.914062	-70.832436
7962.890625	-70.437538
7963.867188	-69.489227
7964.843750	-69.500877
7965.820312	-71.041084
7966.796875	-70.213730
7967.773438	-70.708603
7968.750000	-69.638298
7969.726562	-70.113525
7970.703125	-69.596870
7971.679688	-69.553261
7972.656250	-70.249176
7973.632812	-69.764854
7974.609375	-71.129684
7975.585938	-71.285416
7976.562500	-70.396248
7977.539062	-68.628403
7978.515625	-68.681183
7979.492188	-69.635376
7980.468750	-68.226685
7981.445312	-70.038635
7982.421875	-69.167480
7983.398438	-68.962502
7984.375000	-70.044571
7985.351562	-70.370956
7986.328125	-69.091377
7987.304688	-70.724045
7988.281250	-70.022255
7989.257812	-70.243370
7990.234375	-68.361351
7991.210938	-67.468979
7992.187500	-69.870293
7993.164062	-68.570511
7994.140625	-69.588043
7995.117188	-70.884048
7996.093750	-69.615967
7997.070312	-70.046242
7998.046875	-68.716576
7999.023438	-70.532837
