Frequency (Hz)	Level (dB)
0.976562	-59.866665
1.953125	-58.154881
2.929688	-58.350998
3.906250	-59.585712
4.882812	-59.532894
5.859375	-61.826935
6.835938	-62.737221
7.812500	-61.919849
8.789062	-59.363926
9.765625	-58.880730
10.742188	-58.725853
11.718750	-58.104935
12.695312	-58.519257
13.671875	-58.022915
14.648438	-59.714108
15.625000	-56.993916
16.601562	-56.841618
17.578125	-55.419506
18.554688	-53.926113
19.531250	-50.517162
20.507812	-47.075085
21.484375	-47.208939
22.460938	-46.701569
23.437500	-46.550049
24.414062	-46.349163
25.390625	-48.351379
26.367188	-50.911018
27.343750	-51.622955
28.320312	-53.741543
29.296875	-55.351807
30.273438	-55.649895
31.250000	-55.618973
32.226562	-55.379593
33.203125	-57.278572
34.179688	-56.324669
35.156250	-54.440628
36.132812	-56.132061
37.109375	-56.751812
38.085938	-56.086582
39.062500	-53.928658
40.039062	-54.587334
41.015625	-52.246216
41.992188	-51.826614
42.968750	-50.098347
43.945312	-48.956234
44.921875	-49.489098
45.898438	-48.226410
46.875000	-50.430611
47.851562	-50.795013
48.828125	-51.901939
49.804688	-51.926144
50.781250	-51.120041
51.757812	-51.059013
52.734375	-54.459038
53.710938	-54.220070
54.687500	-55.037716
55.664062	-54.992432
56.640625	-55.902954
57.617188	-57.536991
58.593750	-56.436665
59.570312	-55.964260
60.546875	-54.834267
61.523438	-55.851788
62.500000	-54.311771
63.476562	-53.124668
64.453125	-53.268173
65.429688	-52.183201
66.406250	-52.146523
67.382812	-51.317234
68.359375	-51.238956
69.335938	-50.471607
70.312500	-49.511681
71.289062	-51.016224
72.265625	-51.786308
73.242188	-51.674046
74.218750	-50.858429
75.195312	-52.654430
76.171875	-52.926575
77.148438	-53.088306
78.125000	-52.408257
79.101562	-54.605068
80.078125	-53.723610
81.054688	-55.049034
82.031250	-55.233681
83.007812	-55.166454
83.984375	-54.269089
84.960938	-52.793480
85.937500	-53.929443
86.914062	-53.502632
87.890625	-52.621674
88.867188	-52.387302
89.843750	-53.047581
90.820312	-49.964218
91.796875	-51.010624
92.773438	-50.433781
93.750000	-50.733280
94.726562	-52.791985
95.703125	-53.061157
96.679688	-50.711807
97.656250	-53.662933
98.632812	-52.865303
99.609375	-51.696045
100.585938	-52.805889
101.562500	-54.069981
102.539062	-52.908314
103.515625	-54.291798
104.492188	-52.307629
105.468750	-51.992676
106.445312	-52.146854
107.421875	-53.453457
108.398438	-54.389034
109.375000	-55.006428
110.351562	-54.615379
111.328125	-54.305859
112.304688	-52.972927
113.281250	-51.707394
114.257812	-51.187836
115.234375	-52.297852
116.210938	-52.575584
117.187500	-52.907555
118.164062	-53.026695
119.140625	-50.875324
120.117188	-51.097832
121.093750	-51.491512
122.070312	-52.202103
123.046875	-52.722820
124.023438	-52.543812
125.000000	-52.526089
125.976562	-52.124519
126.953125	-53.418953
127.929688	-51.423840
128.906250	-52.680458
129.882812	-53.530811
130.859375	-53.271816
131.835938	-54.035233
132.812500	-55.338913
133.789062	-54.032307
134.765625	-53.254318
135.742188	-52.467503
136.718750	-51.836094
137.695312	-53.459305
138.671875	-52.674767
139.648438	-52.673397
140.625000	-52.856377
141.601562	-54.428825
142.578125	-52.092831
143.554688	-53.997120
144.531250	-53.343449
145.507812	-53.039864
146.484375	-52.291569
147.460938	-51.393814
148.437500	-52.972763
149.414062	-53.453938
150.390625	-52.943085
151.367188	-53.033066
152.343750	-53.585438
153.320312	-53.445641
154.296875	-52.900372
155.273438	-51.529736
156.250000	-51.388222
157.226562	-52.047825
158.203125	-52.343170
159.179688	-51.610863
160.156250	-53.064423
161.132812	-54.142326
162.109375	-54.446964
163.085938	-53.102264
164.062500	-53.055008
165.039062	-51.729160
166.015625	-52.615875
166.992188	-53.072819
167.968750	-52.906494
168.945312	-53.575981
169.921875	-53.396702
170.898438	-52.511349
171.875000	-53.193413
172.851562	-53.535698
173.828125	-54.284138
174.804688	-52.708481
175.781250	-52.694504
176.757812	-52.427517
177.734375	-52.558308
178.710938	-54.215134
179.687500	-53.942844
180.664062	-51.816704
181.640625	-53.055790
182.617188	-51.888176
183.593750	-51.545563
184.570312	-52.535606
185.546875	-52.665096
186.523438	-52.431164
187.500000	-53.144341
188.476562	-52.189297
189.453125	-50.981674
190.429688	-51.371037
191.406250	-52.850178
192.382812	-53.958530
193.359375	-54.901173
194.335938	-53.283344
195.312500	-52.472858
196.289062	-53.894558
197.265625	-54.441425
198.242188	-54.902878
199.218750	-54.010723
200.195312	-52.877464
201.171875	-52.496658
202.148438	-53.948189
203.125000	-51.428024
204.101562	-52.059948
205.078125	-52.355515
206.054688	-53.742489
207.031250	-54.047928
208.007812	-53.756088
208.984375	-52.763264
209.960938	-52.162487
210.937500	-53.267548
211.914062	-53.223476
212.890625	-52.803658
213.867188	-53.266289
214.843750	-51.998940
215.820312	-51.661194
216.796875	-53.187428
217.773438	-54.324928
218.750000	-53.966175
219.726562	-54.132744
220.703125	-54.815910
221.679688	-55.178963
222.656250	-54.263050
223.632812	-53.830135
224.609375	-52.763817
225.585938	-51.321838
226.562500	-50.578022
227.539062	-51.603489
228.515625	-51.911793
229.492188	-53.587036
230.468750	-53.270321
231.445312	-53.637798
232.421875	-51.737057
233.398438	-52.605263
234.375000	-52.684246
235.351562	-52.355804
236.328125	-53.054432
237.304688	-53.153389
238.281250	-52.237816
239.257812	-52.567879
240.234375	-53.302586
241.210938	-53.475521
242.187500	-53.915047
243.164062	-54.557232
244.140625	-56.274124
245.117188	-53.420128
246.093750	-53.051933
247.070312	-54.387684
248.046875	-53.948200
249.023438	-54.354591
250.000000	-54.416718
250.976562	-54.800064
251.953125	-53.645378
252.929688	-53.044552
253.906250	-52.890129
254.882812	-52.642754
255.859375	-52.316257
256.835938	-52.436138
257.812500	-51.824680
258.789062	-50.749729
259.765625	-51.604370
260.742188	-52.088146
261.718750	-51.716724
262.695312	-52.467503
263.671875	-52.286835
264.648438	-52.338417
265.625000	-52.084724
266.601562	-52.708191
267.578125	-53.826397
268.554688	-53.489830
269.531250	-52.981331
270.507812	-54.206825
271.484375	-54.415779
272.460938	-53.977306
273.437500	-54.278416
274.414062	-54.611679
275.390625	-54.712910
276.367188	-54.311985
277.343750	-53.229759
278.320312	-51.720757
279.296875	-52.852531
280.273438	-53.342960
281.250000	-51.949566
282.226562	-51.052017
283.203125	-51.732182
284.179688	-51.766289
285.156250	-50.821545
286.132812	-52.353970
287.109375	-53.090328
288.085938	-53.793434
289.062500	-53.839058
290.039062	-54.198814
291.015625	-54.158566
291.992188	-52.163349
292.968750	-53.111320
293.945312	-52.721706
294.921875	-54.407001
295.898438	-53.564129
296.875000	-53.630917
297.851562	-54.010155
298.828125	-54.588470
299.804688	-52.924305
300.781250	-53.375252
301.757812	-53.151722
302.734375	-51.387180
303.710938	-51.659454
304.687500	-52.073875
305.664062	-53.418728
306.640625	-54.136227
307.617188	-54.361015
308.593750	-52.990871
309.570312	-53.597664
310.546875	-52.673370
311.523438	-53.826668
312.500000	-52.684517
313.476562	-53.368046
314.453125	-55.161316
315.429688	-54.524204
316.406250	-54.537918
317.382812	-53.438595
318.359375	-53.016071
319.335938	-54.332058
320.312500	-53.290394
321.289062	-52.853848
322.265625	-52.697655
323.242188	-52.730427
324.218750	-53.111031
325.195312	-53.596626
326.171875	-53.766018
327.148438	-52.897129
328.125000	-53.353451
329.101562	-54.587925
330.078125	-54.160118
331.054688	-56.390511
332.031250	-56.530937
333.007812	-55.096718
333.984375	-55.377632
334.960938	-54.400131
335.937500	-52.990711
336.914062	-53.714096
337.890625	-52.744793
338.867188	-52.629490
339.843750	-52.860966
340.820312	-52.057758
341.796875	-52.275101
342.773438	-53.626759
343.750000	-52.419361
344.726562	-52.674854
345.703125	-53.012287
346.679688	-53.985699
347.656250	-53.529968
348.632812	-54.507149
349.609375	-53.701382
350.585938	-55.216339
351.562500	-53.175621
352.539062	-52.366333
353.515625	-53.416321
354.492188	-52.544456
355.468750	-53.407021
356.445312	-52.563404
357.421875	-53.265766
358.398438	-53.823257
359.375000	-51.746540
360.351562	-52.857048
361.328125	-52.543571
362.304688	-53.991623
363.281250	-53.848671
364.257812	-55.659897
365.234375	-54.444134
366.210938	-53.088810
367.187500	-54.964924
368.164062	-54.700111
369.140625	-53.947460
370.117188	-54.982586
371.093750	-54.303314
372.070312	-53.940559
373.046875	-54.420914
374.023438	-54.526226
375.000000	-54.558590
375.976562	-54.384068
376.953125	-54.665829
377.929688	-55.370052
378.906250	-53.398170
379.882812	-52.884220
380.859375	-54.659981
381.835938	-53.205894
382.812500	-52.224983
383.789062	-53.733398
384.765625	-54.684505
385.742188	-54.387276
386.718750	-54.037109
387.695312	-53.543682
388.671875	-52.193623
389.648438	-54.616322
390.625000	-53.546989
391.601562	-53.585548
392.578125	-54.306362
393.554688	-53.988415
394.531250	-54.209290
395.507812	-53.721275
396.484375	-54.696289
397.460938	-54.186859
398.437500	-52.587437
399.414062	-52.816311
400.390625	-53.066292
401.367188	-53.273224
402.343750	-52.232933
403.320312	-53.063499
404.296875	-53.012676
405.273438	-53.894150
406.250000	-51.659168
407.226562	-53.228741
408.203125	-53.537609
409.179688	-53.699272
410.156250	-54.282578
411.132812	-53.912621
412.109375	-54.676224
413.085938	-54.122154
414.062500	-54.983498
415.039062	-53.624744
416.015625	-54.131405
416.992188	-54.278000
417.968750	-53.990963
418.945312	-54.056721
419.921875	-54.495228
420.898438	-53.964748
421.875000	-53.997063
422.851562	-52.807060
423.828125	-54.556881
424.804688	-52.804813
425.781250	-53.183838
426.757812	-53.076248
427.734375	-52.693146
428.710938	-52.928280
429.687500	-51.942917
430.664062	-52.701138
431.640625	-53.063107
432.617188	-53.193321
433.593750	-53.099918
434.570312	-54.124638
435.546875	-54.589512
436.523438	-52.988132
437.500000	-53.937489
438.476562	-53.495747
439.453125	-54.536175
440.429688	-53.648876
441.406250	-54.065178
442.382812	-54.320614
443.359375	-54.198879
444.335938	-53.948833
445.312500	-53.437546
446.289062	-53.020111
447.265625	-53.182453
448.242188	-53.542370
449.218750	-53.534222
450.195312	-52.696098
451.171875	-53.691433
452.148438	-53.191959
453.125000	-52.549656
454.101562	-53.360664
455.078125	-53.018440
456.054688	-54.862427
457.031250	-52.076675
458.007812	-53.134258
458.984375	-53.559116
459.960938	-52.290672
460.937500	-53.586292
461.914062	-53.057911
462.890625	-54.330070
463.867188	-54.906059
464.843750	-53.358776
465.820312	-53.385807
466.796875	-53.371601
467.773438	-53.209408
468.750000	-54.059776
469.726562	-53.511230
470.703125	-52.910412
471.679688	-52.981113
472.656250	-52.666328
473.632812	-53.088024
474.609375	-53.578510
475.585938	-54.504860
476.562500	-52.770439
477.539062	-53.082569
478.515625	-52.319927
479.492188	-53.198101
480.468750	-53.314240
481.445312	-53.666595
482.421875	-52.557129
483.398438	-51.720215
484.375000	-51.413406
485.351562	-52.916351
486.328125	-53.051300
487.304688	-53.561443
488.281250	-54.028652
489.257812	-53.038548
490.234375	-53.943142
491.210938	-52.968845
492.187500	-53.282684
493.164062	-53.483753
494.140625	-52.744907
495.117188	-52.470280
496.093750	-52.149708
497.070312	-52.572617
498.046875	-52.801609
499.023438	-52.394474
500.000000	-52.631721
500.976562	-53.393082
501.953125	-52.935722
502.929688	-51.965374
503.906250	-52.681515
504.882812	-51.908264
505.859375	-52.560459
506.835938	-53.035217
507.812500	-51.286377
508.789062	-49.769962
509.765625	-52.667744
510.742188	-51.522442
511.718750	-51.604382
512.695312	-53.610256
513.671875	-53.224091
514.648438	-53.502045
515.625000	-52.889645
516.601562	-52.977005
517.578125	-54.013889
518.554688	-53.650978
519.531250	-53.108452
520.507812	-51.435333
521.484375	-52.779377
522.460938	-54.076328
523.437500	-52.502533
524.414062	-53.231506
525.390625	-52.738171
526.367188	-51.456841
527.343750	-52.423820
528.320312	-52.695011
529.296875	-51.889832
530.273438	-52.284721
531.250000	-51.682129
532.226562	-51.550117
533.203125	-52.736160
534.179688	-52.086227
535.156250	-51.213280
536.132812	-51.501282
537.109375	-52.621498
538.085938	-52.139221
539.062500	-52.719940
540.039062	-51.874962
541.015625	-53.475159
541.992188	-52.940464
542.968750	-53.913074
543.945312	-53.558189
544.921875	-52.652489
545.898438	-52.998230
546.875000	-53.956032
547.851562	-51.618999
548.828125	-53.119762
549.804688	-54.495110
550.781250	-53.709946
551.757812	-52.168125
552.734375	-51.876225
553.710938	-52.639118
554.687500	-53.434349
555.664062	-51.916866
556.640625	-52.212067
557.617188	-51.581337
558.593750	-53.199127
559.570312	-51.680370
560.546875	-51.896858
561.523438	-53.039936
562.500000	-51.870682
563.476562	-51.851246
564.453125	-53.113419
565.429688	-52.049797
566.406250	-50.966541
567.382812	-52.699059
568.359375	-52.087658
569.335938	-53.188087
570.312500	-53.575455
571.289062	-53.513210
572.265625	-52.818680
573.242188	-52.592190
574.218750	-52.236183
575.195312	-52.205685
576.171875	-53.322254
577.148438	-53.922485
578.125000	-53.053177
579.101562	-52.980125
580.078125	-53.659534
581.054688	-53.559811
582.031250	-54.034477
583.007812	-52.940464
583.984375	-51.669384
584.960938	-52.788628
585.937500	-52.366364
586.914062	-52.401379
587.890625	-53.651134
588.867188	-52.115078
589.843750	-52.591808
590.820312	-53.032028
591.796875	-53.116333
592.773438	-53.275414
593.750000	-53.324703
594.726562	-53.625599
595.703125	-54.191761
596.679688	-52.909290
597.656250	-53.159065
598.632812	-54.246731
599.609375	-53.200203
600.585938	-53.285305
601.562500	-51.696304
602.539062	-52.714146
603.515625	-53.003330
604.492188	-51.631157
605.468750	-51.958607
606.445312	-52.423542
607.421875	-52.033779
608.398438	-51.241207
609.375000	-50.847134
610.351562	-52.164108
611.328125	-52.918415
612.304688	-53.085152
613.281250	-53.106747
614.257812	-53.212841
615.234375	-51.861713
616.210938	-53.704590
617.187500	-53.732307
618.164062	-53.654663
619.140625	-53.501621
620.117188	-53.221054
621.093750	-53.748322
622.070312	-54.664803
623.046875	-53.956059
624.023438	-53.488281
625.000000	-52.780251
625.976562	-53.013802
626.953125	-52.775311
627.929688	-52.342621
628.906250	-54.204090
629.882812	-53.876499
630.859375	-53.174557
631.835938	-55.472431
632.812500	-54.061169
633.789062	-52.720348
634.765625	-54.316841
635.742188	-53.799465
636.718750	-53.397320
637.695312	-54.113171
638.671875	-52.836525
639.648438	-53.451809
640.625000	-53.771706
641.601562	-54.260593
642.578125	-54.481789
643.554688	-54.518295
644.531250	-52.867825
645.507812	-53.282410
646.484375	-54.814167
647.460938	-54.136951
648.437500	-54.137787
649.414062	-53.117744
650.390625	-54.446152
651.367188	-53.786648
652.343750	-53.675213
653.320312	-54.620171
654.296875	-54.035351
655.273438	-53.539692
656.250000	-51.783974
657.226562	-52.767391
658.203125	-53.777977
659.179688	-53.720005
660.156250	-52.000225
661.132812	-54.301994
662.109375	-52.742947
663.085938	-52.974564
664.062500	-53.980484
665.039062	-53.942406
666.015625	-53.653469
666.992188	-53.336750
667.968750	-53.400043
668.945312	-54.517452
669.921875	-53.311226
670.898438	-53.381161
671.875000	-53.484520
672.851562	-52.921467
673.828125	-53.894444
674.804688	-53.935963
675.781250	-53.916718
676.757812	-53.587040
677.734375	-54.109138
678.710938	-52.792973
679.687500	-53.854736
680.664062	-54.653133
681.640625	-53.144470
682.617188	-53.096008
683.593750	-53.804321
684.570312	-54.300144
685.546875	-52.908283
686.523438	-53.264698
687.500000	-55.112404
688.476562	-53.241745
689.453125	-52.612537
690.429688	-53.938698
691.406250	-53.389534
692.382812	-52.535530
693.359375	-56.279339
694.335938	-54.020683
695.312500	-53.809628
696.289062	-55.950253
697.265625	-54.455257
698.242188	-55.511417
699.218750	-54.305603
700.195312	-53.840057
701.171875	-55.131989
702.148438	-53.654068
703.125000	-54.400909
704.101562	-53.766594
705.078125	-54.179203
706.054688	-54.605682
707.031250	-53.157848
708.007812	-55.011261
708.984375	-54.079693
709.960938	-52.391449
710.937500	-54.708897
711.914062	-54.544048
712.890625	-54.288948
713.867188	-54.000992
714.843750	-53.651669
715.820312	-52.794231
716.796875	-53.071533
717.773438	-53.142975
718.750000	-53.565434
719.726562	-55.749344
720.703125	-55.854172
721.679688	-54.806873
722.656250	-53.661236
723.632812	-55.365005
724.609375	-52.591812
725.585938	-53.665920
726.562500	-53.677223
727.539062	-55.355717
728.515625	-53.775421
729.492188	-53.170879
730.468750	-54.109989
731.445312	-53.635132
732.421875	-53.850227
733.398438	-53.181072
734.375000	-53.149029
735.351562	-53.992111
736.328125	-54.511547
737.304688	-54.026043
738.281250	-55.301552
739.257812	-53.131809
740.234375	-53.782558
741.210938	-54.422558
742.187500	-54.716213
743.164062	-54.494835
744.140625	-54.803463
745.117188	-55.163330
746.093750	-54.275055
747.070312	-54.250751
748.046875	-54.086300
749.023438	-52.999847
750.000000	-54.529388
750.976562	-54.654449
751.953125	-54.812683
752.929688	-55.370888
753.906250	-55.909706
754.882812	-54.369053
755.859375	-55.084965
756.835938	-54.647430
757.812500	-55.250889
758.789062	-54.946671
759.765625	-54.315716
760.742188	-54.757084
761.718750	-54.707100
762.695312	-55.756676
763.671875	-55.294910
764.648438	-55.014088
765.625000	-54.950054
766.601562	-55.178722
767.578125	-54.751221
768.554688	-55.095459
769.531250	-55.725075
770.507812	-54.914303
771.484375	-56.067722
772.460938	-55.067795
773.437500	-56.083885
774.414062	-55.431793
775.390625	-55.386105
776.367188	-55.116909
777.343750	-54.176128
778.320312	-54.263538
779.296875	-56.792282
780.273438	-55.266598
781.250000	-56.471169
782.226562	-56.201836
783.203125	-54.843620
784.179688	-55.267067
785.156250	-54.005646
786.132812	-54.836891
787.109375	-54.606617
788.085938	-54.548264
789.062500	-54.570648
790.039062	-55.298080
791.015625	-54.879032
791.992188	-54.950512
792.968750	-54.580933
793.945312	-56.474087
794.921875	-54.632603
795.898438	-54.362991
796.875000	-55.450397
797.851562	-56.011028
798.828125	-54.913326
799.804688	-55.394211
800.781250	-55.921803
801.757812	-56.010269
802.734375	-55.720108
803.710938	-54.978230
804.687500	-55.291607
805.664062	-55.267048
806.640625	-54.275826
807.617188	-55.179871
808.593750	-53.988491
809.570312	-54.605740
810.546875	-54.534668
811.523438	-54.821877
812.500000	-54.832962
813.476562	-55.489456
814.453125	-54.443268
815.429688	-55.314537
816.406250	-55.103947
817.382812	-55.947105
818.359375	-55.099842
819.335938	-55.119614
820.312500	-55.376629
821.289062	-55.180485
822.265625	-55.612995
823.242188	-55.190464
824.218750	-54.347210
825.195312	-55.530788
826.171875	-55.318451
827.148438	-56.215084
828.125000	-56.029911
829.101562	-54.623501
830.078125	-55.311028
831.054688	-54.903496
832.031250	-54.479973
833.007812	-55.655785
833.984375	-55.662411
834.960938	-54.070030
835.937500	-54.652668
836.914062	-54.263374
837.890625	-55.193336
838.867188	-56.334427
839.843750	-54.748154
840.820312	-54.322659
841.796875	-55.140862
842.773438	-55.790516
843.750000	-56.078125
844.726562	-55.036655
845.703125	-55.522743
846.679688	-55.524925
847.656250	-54.600796
848.632812	-54.836926
849.609375	-56.138771
850.585938	-54.969303
851.562500	-55.596970
852.539062	-55.791996
853.515625	-55.893913
854.492188	-55.024239
855.468750	-54.499645
856.445312	-54.726574
857.421875	-54.189400
858.398438	-54.943115
859.375000	-54.741039
860.351562	-53.934006
861.328125	-56.090614
862.304688	-55.596474
863.281250	-54.834652
864.257812	-54.030441
865.234375	-54.124081
866.210938	-55.443794
867.187500	-54.301746
868.164062	-54.938972
869.140625	-54.747456
870.117188	-53.945019
871.093750	-54.781765
872.070312	-54.829498
873.046875	-55.903294
874.023438	-55.736744
875.000000	-55.427822
875.976562	-54.181053
876.953125	-54.217747
877.929688	-56.281281
878.906250	-55.779037
879.882812	-54.715931
880.859375	-55.011032
881.835938	-55.759548
882.812500	-55.933174
883.789062	-55.987869
884.765625	-55.457977
885.742188	-56.056816
886.718750	-55.372395
887.695312	-53.948566
888.671875	-55.391224
889.648438	-54.859940
890.625000	-55.287163
891.601562	-55.309258
892.578125	-55.142609
893.554688	-55.855732
894.531250	-56.894115
895.507812	-56.678528
896.484375	-54.132267
897.460938	-54.752701
898.437500	-55.524368
899.414062	-55.147717
900.390625	-54.564293
901.367188	-54.056103
902.343750	-54.160618
903.320312	-54.189293
904.296875	-53.991352
905.273438	-53.305710
906.250000	-54.224663
907.226562	-54.470207
908.203125	-55.142868
909.179688	-54.023685
910.156250	-55.004234
911.132812	-56.315498
912.109375	-56.069920
913.085938	-55.647049
914.062500	-55.036404
915.039062	-53.452782
916.015625	-55.009087
916.992188	-53.197979
917.968750	-54.336063
918.945312	-54.946011
919.921875	-54.106079
920.898438	-54.331532
921.875000	-54.162697
922.851562	-53.240421
923.828125	-53.782349
924.804688	-53.550743
925.781250	-54.352158
926.757812	-53.052689
927.734375	-53.799969
928.710938	-54.265266
929.687500	-54.004768
930.664062	-54.842167
931.640625	-54.854076
932.617188	-54.387348
933.593750	-55.089046
934.570312	-54.803768
935.546875	-54.462986
936.523438	-53.675266
937.500000	-53.958942
938.476562	-54.263355
939.453125	-53.204216
940.429688	-54.681000
941.406250	-54.264732
942.382812	-54.021938
943.359375	-55.347855
944.335938	-55.263348
945.312500	-54.503681
946.289062	-53.062317
947.265625	-54.420753
948.242188	-55.213470
949.218750	-54.049889
950.195312	-54.613823
951.171875	-54.101570
952.148438	-53.319736
953.125000	-53.924736
954.101562	-54.275089
955.078125	-53.409489
956.054688	-52.214951
957.031250	-52.628628
958.007812	-54.028065
958.984375	-54.184586
959.960938	-54.647137
960.937500	-54.361416
961.914062	-54.448708
962.890625	-53.884014
963.867188	-54.368217
964.843750	-54.132263
965.820312	-54.625690
966.796875	-55.276150
967.773438	-52.942802
968.750000	-53.589542
969.726562	-53.429535
970.703125	-53.848927
971.679688	-52.303574
972.656250	-52.763020
973.632812	-54.314644
974.609375	-54.573345
975.585938	-52.685612
976.562500	-54.884884
977.539062	-55.688980
978.515625	-54.503735
979.492188	-52.466660
980.468750	-54.584476
981.445312	-55.352818
982.421875	-52.853737
983.398438	-52.887035
984.375000	-53.538418
985.351562	-53.473358
986.328125	-54.512802
987.304688	-53.629028
988.281250	-53.901386
989.257812	-55.271557
990.234375	-55.464279
991.210938	-52.815346
992.187500	-54.293011
993.164062	-53.898903
994.140625	-52.914452
995.117188	-53.006649
996.093750	-54.063999
997.070312	-54.103683
998.046875	-54.172886
999.023438	-54.293045
1000.000000	-55.324722
1000.976562	-54.259239
1001.953125	-54.257587
1002.929688	-54.512909
1003.906250	-53.963921
1004.882812	-54.647449
1005.859375	-53.797504
1006.835938	-53.584709
1007.812500	-53.475750
1008.789062	-54.352165
1009.765625	-53.789150
1010.742188	-53.252029
1011.718750	-53.380489
1012.695312	-53.621544
1013.671875	-53.352230
1014.648438	-52.787067
1015.625000	-53.717361
1016.601562	-52.975864
1017.578125	-53.286446
1018.554688	-52.528595
1019.531250	-53.779221
1020.507812	-52.551643
1021.484375	-52.356277
1022.460938	-53.128899
1023.437500	-54.463112
1024.414062	-52.983398
1025.390625	-53.345852
1026.367188	-53.419662
1027.343750	-53.743202
1028.320312	-53.838326
1029.296875	-53.179741
1030.273438	-53.524349
1031.250000	-54.308170
1032.226562	-54.222080
1033.203125	-53.462555
1034.179688	-54.175159
1035.156250	-54.967323
1036.132812	-53.244286
1037.109375	-53.311020
1038.085938	-53.426689
1039.062500	-53.339977
1040.039062	-54.222927
1041.015625	-53.244549
1041.992188	-52.713875
1042.968750	-53.705078
1043.945312	-53.102173
1044.921875	-52.333969
1045.898438	-52.801224
1046.875000	-52.721695
1047.851562	-53.071880
1048.828125	-53.931244
1049.804688	-54.268814
1050.781250	-53.975082
1051.757812	-53.576912
1052.734375	-54.044914
1053.710938	-53.875607
1054.687500	-52.132900
1055.664062	-51.688030
1056.640625	-52.078766
1057.617188	-51.915089
1058.593750	-52.092461
1059.570312	-52.473389
1060.546875	-52.526699
1061.523438	-51.814827
1062.500000	-51.643635
1063.476562	-49.957081
1064.453125	-50.783382
1065.429688	-52.217739
1066.406250	-51.889389
1067.382812	-52.852745
1068.359375	-52.897144
1069.335938	-52.889740
1070.312500	-53.442413
1071.289062	-53.501316
1072.265625	-51.692726
1073.242188	-51.356136
1074.218750	-53.231339
1075.195312	-54.099522
1076.171875	-52.783318
1077.148438	-53.292572
1078.125000	-51.681389
1079.101562	-51.680710
1080.078125	-52.469017
1081.054688	-52.615429
1082.031250	-53.155025
1083.007812	-51.649761
1083.984375	-51.711418
1084.960938	-52.457069
1085.937500	-53.119087
1086.914062	-52.186642
1087.890625	-51.974533
1088.867188	-54.071434
1089.843750	-51.276802
1090.820312	-52.668865
1091.796875	-52.672268
1092.773438	-52.569973
1093.750000	-52.427784
1094.726562	-52.584740
1095.703125	-52.212200
1096.679688	-53.809822
1097.656250	-53.070366
1098.632812	-53.365990
1099.609375	-52.891163
1100.585938	-51.827305
1101.562500	-52.194633
1102.539062	-51.696484
1103.515625	-51.873348
1104.492188	-52.323193
1105.468750	-52.923309
1106.445312	-53.398735
1107.421875	-52.936264
1108.398438	-53.436077
1109.375000	-54.279209
1110.351562	-54.119518
1111.328125	-54.032078
1112.304688	-53.493011
1113.281250	-54.586052
1114.257812	-53.571079
1115.234375	-53.813137
1116.210938	-54.650513
1117.187500	-54.043842
1118.164062	-54.620232
1119.140625	-54.800186
1120.117188	-53.460625
1121.093750	-53.303814
1122.070312	-53.447304
1123.046875	-53.616920
1124.023438	-53.152603
1125.000000	-53.277081
1125.976562	-54.625126
1126.953125	-54.553001
1127.929688	-54.238075
1128.906250	-54.018120
1129.882812	-53.174522
1130.859375	-53.921135
1131.835938	-53.535828
1132.812500	-54.477356
1133.789062	-55.188038
1134.765625	-52.541008
1135.742188	-53.656647
1136.718750	-53.882713
1137.695312	-53.229507
1138.671875	-55.060268
1139.648438	-55.265617
1140.625000	-52.611240
1141.601562	-55.137749
1142.578125	-54.495426
1143.554688	-55.665035
1144.531250	-54.453499
1145.507812	-53.922329
1146.484375	-52.383064
1147.460938	-52.459198
1148.437500	-53.889408
1149.414062	-54.142426
1150.390625	-54.257553
1151.367188	-53.411968
1152.343750	-54.074581
1153.320312	-53.934486
1154.296875	-53.294037
1155.273438	-54.195694
1156.250000	-53.565491
1157.226562	-54.594524
1158.203125	-54.708939
1159.179688	-55.565254
1160.156250	-53.934406
1161.132812	-54.683136
1162.109375	-53.614662
1163.085938	-55.187740
1164.062500	-54.156219
1165.039062	-52.620735
1166.015625	-52.078026
1166.992188	-54.756420
1167.968750	-54.167316
1168.945312	-54.324184
1169.921875	-54.244083
1170.898438	-52.158573
1171.875000	-53.270828
1172.851562	-53.339073
1173.828125	-54.507488
1174.804688	-55.385715
1175.781250	-53.352783
1176.757812	-53.046501
1177.734375	-52.994083
1178.710938	-53.782383
1179.687500	-54.069092
1180.664062	-55.083092
1181.640625	-54.982468
1182.617188	-54.881477
1183.593750	-54.642807
1184.570312	-53.033901
1185.546875	-53.308609
1186.523438	-55.036026
1187.500000	-55.595501
1188.476562	-55.129330
1189.453125	-55.291550
1190.429688	-54.753609
1191.406250	-53.671658
1192.382812	-55.625011
1193.359375	-55.816658
1194.335938	-55.407650
1195.312500	-54.150257
1196.289062	-54.739368
1197.265625	-54.903442
1198.242188	-54.606842
1199.218750	-54.795021
1200.195312	-55.617256
1201.171875	-55.350868
1202.148438	-54.390572
1203.125000	-54.738689
1204.101562	-55.468807
1205.078125	-55.708469
1206.054688	-55.620399
1207.031250	-54.700256
1208.007812	-54.773338
1208.984375	-54.700161
1209.960938	-54.858883
1210.937500	-55.592579
1211.914062	-54.980087
1212.890625	-54.954437
1213.867188	-55.013893
1214.843750	-55.990299
1215.820312	-55.400791
1216.796875	-53.893646
1217.773438	-53.981476
1218.750000	-56.906532
1219.726562	-57.098804
1220.703125	-54.487518
1221.679688	-56.261517
1222.656250	-55.578560
1223.632812	-55.276733
1224.609375	-54.471764
1225.585938	-55.714558
1226.562500	-54.601166
1227.539062	-55.844166
1228.515625	-55.463955
1229.492188	-55.462658
1230.468750	-56.028141
1231.445312	-54.955975
1232.421875	-56.445782
1233.398438	-55.889572
1234.375000	-54.529911
1235.351562	-55.302814
1236.328125	-55.702454
1237.304688	-55.994202
1238.281250	-55.211536
1239.257812	-56.774174
1240.234375	-55.233723
1241.210938	-55.645748
1242.187500	-54.984531
1243.164062	-53.919334
1244.140625	-55.199455
1245.117188	-56.007664
1246.093750	-55.437870
1247.070312	-54.898472
1248.046875	-55.234158
1249.023438	-55.170616
1250.000000	-56.342937
1250.976562	-56.347462
1251.953125	-53.941612
1252.929688	-55.330860
1253.906250	-55.677078
1254.882812	-55.452084
1255.859375	-56.013557
1256.835938	-56.846855
1257.812500	-54.724831
1258.789062	-55.897457
1259.765625	-54.176186
1260.742188	-55.447643
1261.718750	-55.621284
1262.695312	-55.329327
1263.671875	-55.400803
1264.648438	-55.132122
1265.625000	-55.417336
1266.601562	-55.227074
1267.578125	-55.378452
1268.554688	-56.116169
1269.531250	-55.277027
1270.507812	-55.828197
1271.484375	-55.864033
1272.460938	-55.702045
1273.437500	-55.590633
1274.414062	-57.289734
1275.390625	-57.263500
1276.367188	-55.839310
1277.343750	-55.894714
1278.320312	-57.413570
1279.296875	-54.259766
1280.273438	-56.127586
1281.250000	-56.623653
1282.226562	-55.845467
1283.203125	-56.916859
1284.179688	-56.598656
1285.156250	-54.097202
1286.132812	-54.589985
1287.109375	-54.619759
1288.085938	-55.883110
1289.062500	-54.569359
1290.039062	-55.032604
1291.015625	-55.910313
1291.992188	-55.361809
1292.968750	-55.571884
1293.945312	-55.554131
1294.921875	-55.401207
1295.898438	-54.797104
1296.875000	-54.786942
1297.851562	-55.209812
1298.828125	-54.150295
1299.804688	-56.257565
1300.781250	-55.179237
1301.757812	-55.543282
1302.734375	-57.398376
1303.710938	-55.523800
1304.687500	-55.109627
1305.664062	-55.873421
1306.640625	-55.685356
1307.617188	-54.659859
1308.593750	-56.512516
1309.570312	-55.718510
1310.546875	-56.451103
1311.523438	-56.125500
1312.500000	-55.088440
1313.476562	-54.369843
1314.453125	-55.197742
1315.429688	-56.362812
1316.406250	-54.758003
1317.382812	-56.988434
1318.359375	-56.003136
1319.335938	-55.777130
1320.312500	-56.174877
1321.289062	-57.004696
1322.265625	-55.445305
1323.242188	-56.795925
1324.218750	-55.396610
1325.195312	-55.545258
1326.171875	-56.993217
1327.148438	-55.937366
1328.125000	-56.586525
1329.101562	-56.413158
1330.078125	-56.812290
1331.054688	-56.776485
1332.031250	-54.965694
1333.007812	-54.256374
1333.984375	-54.394089
1334.960938	-54.630276
1335.937500	-56.350269
1336.914062	-56.446045
1337.890625	-56.755161
1338.867188	-55.481045
1339.843750	-56.072495
1340.820312	-56.923145
1341.796875	-56.164402
1342.773438	-55.449646
1343.750000	-55.239323
1344.726562	-54.486214
1345.703125	-54.682014
1346.679688	-55.434124
1347.656250	-56.654171
1348.632812	-54.664131
1349.609375	-55.924725
1350.585938	-54.312443
1351.562500	-55.326786
1352.539062	-55.995968
1353.515625	-54.707890
1354.492188	-54.176823
1355.468750	-55.384048
1356.445312	-56.676895
1357.421875	-56.165943
1358.398438	-53.923786
1359.375000	-55.005341
1360.351562	-53.923988
1361.328125	-53.237225
1362.304688	-54.544373
1363.281250	-53.918259
1364.257812	-54.091000
1365.234375	-54.467403
1366.210938	-55.329132
1367.187500	-55.738781
1368.164062	-55.820999
1369.140625	-56.198208
1370.117188	-54.201065
1371.093750	-54.388992
1372.070312	-55.452244
1373.046875	-55.364967
1374.023438	-54.991596
1375.000000	-56.193237
1375.976562	-56.238880
1376.953125	-56.364227
1377.929688	-54.843506
1378.906250	-55.258118
1379.882812	-54.127876
1380.859375	-56.403534
1381.835938	-53.975216
1382.812500	-55.319454
1383.789062	-55.470219
1384.765625	-56.775017
1385.742188	-55.411743
1386.718750	-56.158680
1387.695312	-54.334206
1388.671875	-53.333061
1389.648438	-53.510620
1390.625000	-54.311672
1391.601562	-54.744663
1392.578125	-52.936634
1393.554688	-53.215046
1394.531250	-54.158672
1395.507812	-55.272125
1396.484375	-54.766655
1397.460938	-54.078789
1398.437500	-55.959015
1399.414062	-54.803944
1400.390625	-54.635731
1401.367188	-56.102554
1402.343750	-54.850838
1403.320312	-54.796967
1404.296875	-55.180889
1405.273438	-54.810966
1406.250000	-54.066021
1407.226562	-53.923832
1408.203125	-53.582802
1409.179688	-54.615147
1410.156250	-55.193089
1411.132812	-53.362019
1412.109375	-53.076180
1413.085938	-55.302044
1414.062500	-54.757511
1415.039062	-55.489105
1416.015625	-55.922333
1416.992188	-54.401474
1417.968750	-54.490116
1418.945312	-54.975449
1419.921875	-53.853317
1420.898438	-52.267414
1421.875000	-52.676380
1422.851562	-53.419746
1423.828125	-53.514614
1424.804688	-53.000401
1425.781250	-53.990013
1426.757812	-53.482456
1427.734375	-52.008804
1428.710938	-53.917095
1429.687500	-54.313118
1430.664062	-53.466835
1431.640625	-52.524227
1432.617188	-52.972809
1433.593750	-53.673264
1434.570312	-53.882969
1435.546875	-54.266369
1436.523438	-54.351349
1437.500000	-54.198017
1438.476562	-52.985168
1439.453125	-55.166710
1440.429688	-54.611675
1441.406250	-53.658653
1442.382812	-54.683201
1443.359375	-54.151386
1444.335938	-54.501877
1445.312500	-54.194801
1446.289062	-52.755016
1447.265625	-54.046040
1448.242188	-54.543549
1449.218750	-53.326283
1450.195312	-52.630432
1451.171875	-55.116657
1452.148438	-52.690487
1453.125000	-53.839985
1454.101562	-55.054554
1455.078125	-54.185612
1456.054688	-55.144344
1457.031250	-53.795925
1458.007812	-52.755981
1458.984375	-53.420006
1459.960938	-51.828667
1460.937500	-51.243271
1461.914062	-52.936958
1462.890625	-55.276611
1463.867188	-53.850258
1464.843750	-53.379772
1465.820312	-53.079849
1466.796875	-51.173702
1467.773438	-51.744968
1468.750000	-51.260258
1469.726562	-54.488010
1470.703125	-52.755936
1471.679688	-53.417816
1472.656250	-54.366108
1473.632812	-52.390827
1474.609375	-51.262825
1475.585938	-53.038857
1476.562500	-51.846439
1477.539062	-54.005814
1478.515625	-52.827915
1479.492188	-51.698456
1480.468750	-53.573185
1481.445312	-54.066502
1482.421875	-53.794010
1483.398438	-52.694939
1484.375000	-53.740162
1485.351562	-54.068260
1486.328125	-53.141899
1487.304688	-52.808067
1488.281250	-51.309319
1489.257812	-50.145584
1490.234375	-50.406185
1491.210938	-52.407455
1492.187500	-53.875355
1493.164062	-52.841461
1494.140625	-51.200985
1495.117188	-50.756748
1496.093750	-53.326984
1497.070312	-50.693314
1498.046875	-51.881191
1499.023438	-52.087418
1500.000000	-52.807323
1500.976562	-51.799854
1501.953125	-51.249645
1502.929688	-51.950832
1503.906250	-53.145447
1504.882812	-52.284718
1505.859375	-52.594570
1506.835938	-51.448280
1507.812500	-51.917984
1508.789062	-50.808960
1509.765625	-51.505753
1510.742188	-50.947750
1511.718750	-50.387020
1512.695312	-49.998993
1513.671875	-49.264435
1514.648438	-49.840321
1515.625000	-50.224911
1516.601562	-50.333984
1517.578125	-50.381107
1518.554688	-49.961811
1519.531250	-51.423767
1520.507812	-51.955154
1521.484375	-50.491909
1522.460938	-50.827744
1523.437500	-52.154640
1524.414062	-52.575249
1525.390625	-51.000050
1526.367188	-51.526661
1527.343750	-49.560818
1528.320312	-49.228794
1529.296875	-49.805874
1530.273438	-48.910656
1531.250000	-50.212986
1532.226562	-51.364162
1533.203125	-50.244511
1534.179688	-50.887096
1535.156250	-49.664104
1536.132812	-48.421928
1537.109375	-49.406788
1538.085938	-50.227055
1539.062500	-50.083641
1540.039062	-49.755173
1541.015625	-50.667747
1541.992188	-49.848091
1542.968750	-49.554775
1543.945312	-49.212502
1544.921875	-49.414875
1545.898438	-51.193554
1546.875000	-50.673126
1547.851562	-48.897732
1548.828125	-48.672062
1549.804688	-49.429329
1550.781250	-51.227203
1551.757812	-49.943558
1552.734375	-47.713921
1553.710938	-49.244110
1554.687500	-49.912991
1555.664062	-48.743523
1556.640625	-50.057861
1557.617188	-49.443153
1558.593750	-48.689743
1559.570312	-49.709038
1560.546875	-49.564415
1561.523438	-47.788765
1562.500000	-48.810928
1563.476562	-47.794395
1564.453125	-50.118237
1565.429688	-49.053196
1566.406250	-47.912647
1567.382812	-48.531052
1568.359375	-48.842766
1569.335938	-48.658810
1570.312500	-48.628639
1571.289062	-47.793236
1572.265625	-48.739799
1573.242188	-48.212639
1574.218750	-49.353733
1575.195312	-49.440105
1576.171875	-49.096684
1577.148438	-50.347496
1578.125000	-49.635487
1579.101562	-48.734425
1580.078125	-49.043610
1581.054688	-47.737164
1582.031250	-49.183681
1583.007812	-48.519627
1583.984375	-49.191078
1584.960938	-48.561134
1585.937500	-49.133976
1586.914062	-49.523548
1587.890625	-49.041008
1588.867188	-48.042789
1589.843750	-48.453228
1590.820312	-48.966843
1591.796875	-49.622402
1592.773438	-49.566742
1593.750000	-50.361950
1594.726562	-49.621456
1595.703125	-50.463882
1596.679688	-50.453308
1597.656250	-50.465759
1598.632812	-50.854450
1599.609375	-49.338490
1600.585938	-50.582165
1601.562500	-49.775444
1602.539062	-49.078720
1603.515625	-50.738018
1604.492188	-49.794659
1605.468750	-48.705914
1606.445312	-49.761169
1607.421875	-50.911015
1608.398438	-50.304367
1609.375000	-50.771626
1610.351562	-51.625618
1611.328125	-50.234043
1612.304688	-51.127384
1613.281250	-50.964691
1614.257812	-49.553329
1615.234375	-49.779949
1616.210938	-50.857304
1617.187500	-50.761654
1618.164062	-50.493931
1619.140625	-51.309097
1620.117188	-51.241711
1621.093750	-50.882458
1622.070312	-50.886063
1623.046875	-49.981407
1624.023438	-51.593327
1625.000000	-50.841583
1625.976562	-51.120605
1626.953125	-51.934200
1627.929688	-51.499454
1628.906250	-51.483147
1629.882812	-50.736568
1630.859375	-51.836399
1631.835938	-50.846722
1632.812500	-51.974113
1633.789062	-51.810497
1634.765625	-51.171917
1635.742188	-50.144650
1636.718750	-51.874054
1637.695312	-51.221676
1638.671875	-52.996986
1639.648438	-52.200222
1640.625000	-50.439194
1641.601562	-51.822548
1642.578125	-52.109905
1643.554688	-51.534454
1644.531250	-51.973751
1645.507812	-52.607513
1646.484375	-52.961220
1647.460938	-52.855053
1648.437500	-52.053677
1649.414062	-53.464294
1650.390625	-53.588593
1651.367188	-52.497471
1652.343750	-53.553478
1653.320312	-51.664574
1654.296875	-53.080406
1655.273438	-53.130249
1656.250000	-52.232452
1657.226562	-52.469383
1658.203125	-51.247902
1659.179688	-51.644444
1660.156250	-53.247597
1661.132812	-51.906868
1662.109375	-51.437893
1663.085938	-52.494659
1664.062500	-51.635937
1665.039062	-51.841728
1666.015625	-52.670250
1666.992188	-53.174679
1667.968750	-53.228916
1668.945312	-54.669518
1669.921875	-53.863476
1670.898438	-52.503189
1671.875000	-54.101959
1672.851562	-52.809853
1673.828125	-53.368698
1674.804688	-53.220493
1675.781250	-52.073296
1676.757812	-53.088528
1677.734375	-53.576000
1678.710938	-53.034988
1679.687500	-51.787418
1680.664062	-52.336407
1681.640625	-52.809742
1682.617188	-51.536739
1683.593750	-52.500095
1684.570312	-51.112774
1685.546875	-51.991852
1686.523438	-50.833443
1687.500000	-51.859379
1688.476562	-52.553307
1689.453125	-51.815079
1690.429688	-52.646698
1691.406250	-52.936081
1692.382812	-52.860485
1693.359375	-52.199909
1694.335938	-52.841709
1695.312500	-52.271839
1696.289062	-53.888050
1697.265625	-54.113926
1698.242188	-54.756050
1699.218750	-52.614563
1700.195312	-52.719791
1701.171875	-54.062401
1702.148438	-53.160080
1703.125000	-53.763840
1704.101562	-52.552998
1705.078125	-53.746159
1706.054688	-54.831345
1707.031250	-53.392857
1708.007812	-51.850445
1708.984375	-52.703156
1709.960938	-54.759686
1710.937500	-53.054924
1711.914062	-52.536068
1712.890625	-52.508404
1713.867188	-52.906769
1714.843750	-53.725529
1715.820312	-53.117279
1716.796875	-53.890251
1717.773438	-53.796337
1718.750000	-53.770554
1719.726562	-53.117115
1720.703125	-52.168839
1721.679688	-54.321552
1722.656250	-53.958267
1723.632812	-53.249119
1724.609375	-54.335255
1725.585938	-53.961548
1726.562500	-53.844170
1727.539062	-53.603657
1728.515625	-54.738892
1729.492188	-53.935677
1730.468750	-53.596741
1731.445312	-53.034317
1732.421875	-53.149006
1733.398438	-54.066868
1734.375000	-53.678207
1735.351562	-53.977142
1736.328125	-53.346424
1737.304688	-54.592789
1738.281250	-53.289543
1739.257812	-53.550552
1740.234375	-54.011009
1741.210938	-55.552177
1742.187500	-54.256481
1743.164062	-53.327847
1744.140625	-52.500126
1745.117188	-53.966805
1746.093750	-54.062767
1747.070312	-55.599464
1748.046875	-53.695587
1749.023438	-52.877739
1750.000000	-53.257870
1750.976562	-54.627438
1751.953125	-55.455906
1752.929688	-55.300171
1753.906250	-53.642345
1754.882812	-52.841927
1755.859375	-55.117771
1756.835938	-54.771721
1757.812500	-54.056374
1758.789062	-54.746845
1759.765625	-53.366127
1760.742188	-54.648293
1761.718750	-55.502331
1762.695312	-54.764603
1763.671875	-52.846828
1764.648438	-53.869431
1765.625000	-55.399395
1766.601562	-54.745434
1767.578125	-54.766811
1768.554688	-53.522869
1769.531250	-53.966637
1770.507812	-55.842312
1771.484375	-54.461792
1772.460938	-54.553425
1773.437500	-54.653419
1774.414062	-55.334198
1775.390625	-54.482094
1776.367188	-52.504822
1777.343750	-54.269432
1778.320312	-54.524967
1779.296875	-54.373940
1780.273438	-54.295395
1781.250000	-54.147312
1782.226562	-55.018345
1783.203125	-54.308495
1784.179688	-55.108994
1785.156250	-55.543919
1786.132812	-53.675690
1787.109375	-54.262257
1788.085938	-56.354084
1789.062500	-56.319031
1790.039062	-55.422897
1791.015625	-55.159058
1791.992188	-55.131172
1792.968750	-54.229294
1793.945312	-54.068172
1794.921875	-54.716679
1795.898438	-53.396053
1796.875000	-55.153820
1797.851562	-54.673782
1798.828125	-54.413380
1799.804688	-53.975945
1800.781250	-54.713974
1801.757812	-55.176174
1802.734375	-55.523800
1803.710938	-55.332062
1804.687500	-55.077526
1805.664062	-53.886368
1806.640625	-53.151516
1807.617188	-54.427723
1808.593750	-55.233292
1809.570312	-54.947598
1810.546875	-55.029896
1811.523438	-55.640961
1812.500000	-54.435211
1813.476562	-52.327343
1814.453125	-53.996746
1815.429688	-54.939690
1816.406250	-53.919048
1817.382812	-54.913383
1818.359375	-54.772621
1819.335938	-53.667789
1820.312500	-56.195087
1821.289062	-53.717590
1822.265625	-55.210293
1823.242188	-54.683273
1824.218750	-54.378960
1825.195312	-54.356522
1826.171875	-55.405907
1827.148438	-54.694294
1828.125000	-53.377117
1829.101562	-55.079613
1830.078125	-53.786880
1831.054688	-53.816410
1832.031250	-53.160809
1833.007812	-52.856991
1833.984375	-53.881496
1834.960938	-54.235859
1835.937500	-54.102203
1836.914062	-54.413620
1837.890625	-53.558094
1838.867188	-54.860413
1839.843750	-55.850235
1840.820312	-53.277752
1841.796875	-53.328293
1842.773438	-55.584934
1843.750000	-53.949585
1844.726562	-52.288841
1845.703125	-53.380093
1846.679688	-53.576992
1847.656250	-53.252209
1848.632812	-54.728683
1849.609375	-53.002819
1850.585938	-53.056160
1851.562500	-53.634377
1852.539062	-53.857643
1853.515625	-54.029800
1854.492188	-53.577103
1855.468750	-54.149170
1856.445312	-55.703461
1857.421875	-53.316086
1858.398438	-54.281120
1859.375000	-52.958118
1860.351562	-52.094639
1861.328125	-53.563873
1862.304688	-53.389114
1863.281250	-52.591908
1864.257812	-53.657139
1865.234375	-53.289108
1866.210938	-56.033165
1867.187500	-54.140858
1868.164062	-53.502132
1869.140625	-53.640045
1870.117188	-53.690056
1871.093750	-53.185535
1872.070312	-53.309185
1873.046875	-53.614891
1874.023438	-52.642372
1875.000000	-52.462490
1875.976562	-53.176414
1876.953125	-52.623650
1877.929688	-52.641304
1878.906250	-51.870037
1879.882812	-53.205109
1880.859375	-54.502426
1881.835938	-53.975506
1882.812500	-54.099545
1883.789062	-53.420269
1884.765625	-53.024017
1885.742188	-54.281704
1886.718750	-52.691986
1887.695312	-52.719841
1888.671875	-55.359627
1889.648438	-53.442085
1890.625000	-52.219627
1891.601562	-53.617416
1892.578125	-52.259258
1893.554688	-50.935146
1894.531250	-52.020317
1895.507812	-51.817856
1896.484375	-51.156811
1897.460938	-53.046814
1898.437500	-52.492565
1899.414062	-53.715378
1900.390625	-52.709583
1901.367188	-52.595470
1902.343750	-53.464314
1903.320312	-52.814690
1904.296875	-52.574940
1905.273438	-51.098202
1906.250000	-53.394482
1907.226562	-53.030682
1908.203125	-51.403965
1909.179688	-52.374329
1910.156250	-53.185558
1911.132812	-53.441910
1912.109375	-52.887878
1913.085938	-51.741669
1914.062500	-51.701759
1915.039062	-52.378174
1916.015625	-52.884510
1916.992188	-53.149960
1917.968750	-51.659977
1918.945312	-51.406689
1919.921875	-53.242050
1920.898438	-52.865665
1921.875000	-52.449467
1922.851562	-52.541748
1923.828125	-51.942749
1924.804688	-52.218174
1925.781250	-53.051022
1926.757812	-53.381496
1927.734375	-53.077782
1928.710938	-53.777046
1929.687500	-51.723652
1930.664062	-50.859734
1931.640625	-52.014244
1932.617188	-52.064384
1933.593750	-49.772083
1934.570312	-50.749355
1935.546875	-51.906528
1936.523438	-52.238342
1937.500000	-52.172794
1938.476562	-51.527832
1939.453125	-51.669876
1940.429688	-51.254364
1941.406250	-51.127029
1942.382812	-50.649357
1943.359375	-50.246899
1944.335938	-51.630898
1945.312500	-52.006752
1946.289062	-52.793808
1947.265625	-51.664772
1948.242188	-50.661594
1949.218750	-52.427109
1950.195312	-52.132404
1951.171875	-50.943737
1952.148438	-50.668018
1953.125000	-49.721664
1954.101562	-47.538860
1955.078125	-49.152004
1956.054688	-51.156918
1957.031250	-51.561966
1958.007812	-49.486099
1958.984375	-50.360443
1959.960938	-49.558674
1960.937500	-49.175201
1961.914062	-48.070770
1962.890625	-49.438007
1963.867188	-50.815083
1964.843750	-49.008335
1965.820312	-48.799141
1966.796875	-50.191368
1967.773438	-49.050671
1968.750000	-48.118176
1969.726562	-50.151455
1970.703125	-48.515587
1971.679688	-49.102703
1972.656250	-47.662437
1973.632812	-47.413681
1974.609375	-47.413246
1975.585938	-47.953690
1976.562500	-47.455830
1977.539062	-48.122414
1978.515625	-49.191292
1979.492188	-49.725170
1980.468750	-48.834221
1981.445312	-47.109985
1982.421875	-45.679604
1983.398438	-46.419788
1984.375000	-48.546753
1985.351562	-47.990246
1986.328125	-46.459087
1987.304688	-47.026794
1988.281250	-48.948765
1989.257812	-48.076332
1990.234375	-47.950981
1991.210938	-47.169575
1992.187500	-47.111191
1993.164062	-48.652981
1994.140625	-49.900826
1995.117188	-46.993889
1996.093750	-46.972374
1997.070312	-49.686390
1998.046875	-48.296265
1999.023438	-46.577194
2000.000000	-47.615059
2000.976562	-46.897720
2001.953125	-45.674736
2002.929688	-45.051704
2003.906250	-45.757820
2004.882812	-45.275936
2005.859375	-45.427895
2006.835938	-47.236855
2007.812500	-48.621964
2008.789062	-47.063309
2009.765625	-46.201794
2010.742188	-45.104553
2011.718750	-45.854816
2012.695312	-47.224560
2013.671875	-47.747181
2014.648438	-45.516922
2015.625000	-44.547195
2016.601562	-46.272739
2017.578125	-45.265228
2018.554688	-45.144566
2019.531250	-43.338737
2020.507812	-43.353817
2021.484375	-45.252285
2022.460938	-45.436131
2023.437500	-44.586895
2024.414062	-45.437912
2025.390625	-46.392735
2026.367188	-44.154755
2027.343750	-44.048328
2028.320312	-44.500484
2029.296875	-43.665600
2030.273438	-42.333275
2031.250000	-44.342720
2032.226562	-44.977654
2033.203125	-47.984974
2034.179688	-46.979259
2035.156250	-44.354149
2036.132812	-44.035282
2037.109375	-44.109837
2038.085938	-45.138248
2039.062500	-43.154697
2040.039062	-43.689854
2041.015625	-42.556114
2041.992188	-43.876472
2042.968750	-43.926937
2043.945312	-42.640129
2044.921875	-43.625271
2045.898438	-43.705963
2046.875000	-43.203194
2047.851562	-45.325684
2048.828125	-42.987167
2049.804688	-44.033810
2050.781250	-43.725491
2051.757812	-43.776070
2052.734375	-43.620430
2053.710938	-44.398277
2054.687500	-44.044491
2055.664062	-43.383694
2056.640625	-42.491741
2057.617188	-43.886559
2058.593750	-44.906338
2059.570312	-43.859177
2060.546875	-43.155987
2061.523438	-44.592049
2062.500000	-42.793896
2063.476562	-44.945965
2064.453125	-43.997108
2065.429688	-43.760151
2066.406250	-43.506893
2067.382812	-44.673794
2068.359375	-43.534420
2069.335938	-43.050240
2070.312500	-43.952881
2071.289062	-43.414383
2072.265625	-44.303360
2073.242188	-44.005199
2074.218750	-44.483871
2075.195312	-43.239155
2076.171875	-42.516533
2077.148438	-43.670368
2078.125000	-43.582439
2079.101562	-42.648640
2080.078125	-42.079685
2081.054688	-41.410587
2082.031250	-44.683983
2083.007812	-43.177094
2083.984375	-43.920681
2084.960938	-43.005424
2085.937500	-43.434288
2086.914062	-43.348923
2087.890625	-42.988415
2088.867188	-44.607555
2089.843750	-44.420635
2090.820312	-43.488754
2091.796875	-43.289379
2092.773438	-43.809162
2093.750000	-44.053856
2094.726562	-43.919621
2095.703125	-43.926071
2096.679688	-45.618992
2097.656250	-44.355087
2098.632812	-43.770447
2099.609375	-45.125080
2100.585938	-44.434223
2101.562500	-44.445564
2102.539062	-45.473717
2103.515625	-45.296818
2104.492188	-44.134117
2105.468750	-43.797371
2106.445312	-46.026291
2107.421875	-44.122066
2108.398438	-43.525597
2109.375000	-43.701302
2110.351562	-44.337791
2111.328125	-44.329224
2112.304688	-44.765423
2113.281250	-44.530910
2114.257812	-44.334431
2115.234375	-43.714565
2116.210938	-45.051971
2117.187500	-44.695164
2118.164062	-44.269043
2119.140625	-43.709785
2120.117188	-43.584957
2121.093750	-43.040199
2122.070312	-44.630856
2123.046875	-45.218185
2124.023438	-44.732403
2125.000000	-45.853233
2125.976562	-45.469845
2126.953125	-44.547775
2127.929688	-44.488880
2128.906250	-45.134014
2129.882812	-45.785946
2130.859375	-44.045700
2131.835938	-44.933830
2132.812500	-46.308804
2133.789062	-43.936161
2134.765625	-45.453136
2135.742188	-45.397392
2136.718750	-45.605534
2137.695312	-45.802715
2138.671875	-43.755615
2139.648438	-45.212154
2140.625000	-46.435020
2141.601562	-46.504204
2142.578125	-45.230923
2143.554688	-44.722515
2144.531250	-45.233315
2145.507812	-45.354389
2146.484375	-46.141148
2147.460938	-45.614002
2148.437500	-46.565159
2149.414062	-47.250420
2150.390625	-47.258427
2151.367188	-46.781868
2152.343750	-46.414650
2153.320312	-46.867420
2154.296875	-45.989456
2155.273438	-45.860825
2156.250000	-46.591675
2157.226562	-46.464504
2158.203125	-47.500626
2159.179688	-46.501663
2160.156250	-46.545132
2161.132812	-46.787174
2162.109375	-46.104328
2163.085938	-45.887745
2164.062500	-46.593189
2165.039062	-47.897385
2166.015625	-46.274452
2166.992188	-48.463863
2167.968750	-48.378105
2168.945312	-47.147804
2169.921875	-47.477684
2170.898438	-49.428146
2171.875000	-48.166996
2172.851562	-47.972572
2173.828125	-49.242561
2174.804688	-47.225456
2175.781250	-46.933762
2176.757812	-46.698486
2177.734375	-48.344810
2178.710938	-48.687244
2179.687500	-47.796200
2180.664062	-48.154537
2181.640625	-48.327393
2182.617188	-48.400002
2183.593750	-47.629047
2184.570312	-48.783047
2185.546875	-48.921127
2186.523438	-47.632519
2187.500000	-48.157722
2188.476562	-48.502769
2189.453125	-48.757660
2190.429688	-48.982788
2191.406250	-49.733063
2192.382812	-49.983139
2193.359375	-49.881214
2194.335938	-48.714909
2195.312500	-47.582253
2196.289062	-48.841255
2197.265625	-48.842468
2198.242188	-46.865337
2199.218750	-48.934139
2200.195312	-50.063663
2201.171875	-49.597660
2202.148438	-49.464134
2203.125000	-48.465034
2204.101562	-47.917210
2205.078125	-47.564201
2206.054688	-48.394863
2207.031250	-46.835762
2208.007812	-46.192368
2208.984375	-48.798916
2209.960938	-48.555271
2210.937500	-47.501221
2211.914062	-46.703255
2212.890625	-47.009705
2213.867188	-48.041046
2214.843750	-49.319893
2215.820312	-47.888828
2216.796875	-47.899796
2217.773438	-47.604431
2218.750000	-47.226624
2219.726562	-49.049927
2220.703125	-48.818947
2221.679688	-49.921204
2222.656250	-49.310524
2223.632812	-49.622543
2224.609375	-49.189842
2225.585938	-49.145481
2226.562500	-49.366928
2227.539062	-49.600628
2228.515625	-48.545452
2229.492188	-49.959122
2230.468750	-48.311119
2231.445312	-47.083172
2232.421875	-47.611065
2233.398438	-48.407539
2234.375000	-50.154274
2235.351562	-49.229568
2236.328125	-49.929855
2237.304688	-47.973366
2238.281250	-47.984325
2239.257812	-47.163273
2240.234375	-47.697899
2241.210938	-48.687725
2242.187500	-50.472115
2243.164062	-49.596611
2244.140625	-48.365253
2245.117188	-48.305256
2246.093750	-49.966038
2247.070312	-49.117699
2248.046875	-49.827911
2249.023438	-50.530575
2250.000000	-48.989994
2250.976562	-48.468620
2251.953125	-50.579216
2252.929688	-49.139854
2253.906250	-50.111900
2254.882812	-49.285316
2255.859375	-48.961914
2256.835938	-48.687538
2257.812500	-49.467464
2258.789062	-51.227879
2259.765625	-50.188065
2260.742188	-51.542942
2261.718750	-49.416782
2262.695312	-48.425854
2263.671875	-51.104095
2264.648438	-49.139378
2265.625000	-49.914917
2266.601562	-50.166531
2267.578125	-50.669178
2268.554688	-50.292610
2269.531250	-48.607597
2270.507812	-50.228073
2271.484375	-51.200695
2272.460938	-51.843781
2273.437500	-51.742336
2274.414062	-50.533607
2275.390625	-51.142349
2276.367188	-50.414688
2277.343750	-52.519363
2278.320312	-51.042713
2279.296875	-50.916485
2280.273438	-51.429531
2281.250000	-50.576748
2282.226562	-50.814514
2283.203125	-49.843712
2284.179688	-50.625065
2285.156250	-49.864159
2286.132812	-50.461040
2287.109375	-49.846397
2288.085938	-49.333359
2289.062500	-49.728642
2290.039062	-48.886806
2291.015625	-50.629150
2291.992188	-51.030170
2292.968750	-51.876240
2293.945312	-51.844604
2294.921875	-49.583405
2295.898438	-50.017605
2296.875000	-49.124310
2297.851562	-48.779732
2298.828125	-48.906162
2299.804688	-50.234032
2300.781250	-50.352127
2301.757812	-51.807911
2302.734375	-51.610111
2303.710938	-51.182426
2304.687500	-51.093582
2305.664062	-50.333866
2306.640625	-49.926266
2307.617188	-49.794762
2308.593750	-50.640255
2309.570312	-50.694496
2310.546875	-49.796570
2311.523438	-50.279346
2312.500000	-51.227673
2313.476562	-52.815834
2314.453125	-51.198826
2315.429688	-52.283848
2316.406250	-53.040035
2317.382812	-51.568584
2318.359375	-51.040306
2319.335938	-52.527420
2320.312500	-51.615429
2321.289062	-52.554745
2322.265625	-51.381443
2323.242188	-50.924862
2324.218750	-51.438080
2325.195312	-51.824734
2326.171875	-51.689976
2327.148438	-50.598114
2328.125000	-52.173477
2329.101562	-50.030636
2330.078125	-49.413071
2331.054688	-48.927490
2332.031250	-51.389957
2333.007812	-49.993912
2333.984375	-50.269962
2334.960938	-50.233093
2335.937500	-50.236298
2336.914062	-52.162556
2337.890625	-50.795273
2338.867188	-51.728588
2339.843750	-51.228725
2340.820312	-51.510815
2341.796875	-50.424191
2342.773438	-49.021538
2343.750000	-49.650303
2344.726562	-49.160393
2345.703125	-49.637226
2346.679688	-51.449997
2347.656250	-49.486198
2348.632812	-49.009277
2349.609375	-50.382057
2350.585938	-49.739594
2351.562500	-50.056290
2352.539062	-50.151695
2353.515625	-50.351738
2354.492188	-48.821388
2355.468750	-49.853226
2356.445312	-50.011700
2357.421875	-49.175045
2358.398438	-48.657326
2359.375000	-50.379177
2360.351562	-50.693695
2361.328125	-50.682343
2362.304688	-49.088245
2363.281250	-48.498180
2364.257812	-49.951893
2365.234375	-49.898090
2366.210938	-48.792107
2367.187500	-49.274578
2368.164062	-49.743290
2369.140625	-49.344040
2370.117188	-48.480640
2371.093750	-47.795357
2372.070312	-48.240528
2373.046875	-48.582596
2374.023438	-50.170433
2375.000000	-49.921608
2375.976562	-50.139645
2376.953125	-47.936256
2377.929688	-48.249340
2378.906250	-49.371689
2379.882812	-47.206192
2380.859375	-50.130283
2381.835938	-48.339127
2382.812500	-49.397888
2383.789062	-49.846897
2384.765625	-49.354111
2385.742188	-47.943565
2386.718750	-47.968922
2387.695312	-49.267502
2388.671875	-49.734825
2389.648438	-49.916573
2390.625000	-48.824661
2391.601562	-47.729481
2392.578125	-46.351910
2393.554688	-44.758339
2394.531250	-44.122375
2395.507812	-44.771637
2396.484375	-46.679611
2397.460938	-47.103474
2398.437500	-48.955086
2399.414062	-48.798359
2400.390625	-48.598000
2401.367188	-50.095985
2402.343750	-47.519024
2403.320312	-47.836601
2404.296875	-48.583286
2405.273438	-49.725693
2406.250000	-46.329620
2407.226562	-44.567467
2408.203125	-44.726028
2409.179688	-44.189285
2410.156250	-45.361374
2411.132812	-46.851868
2412.109375	-44.954391
2413.085938	-43.702854
2414.062500	-44.309830
2415.039062	-43.959541
2416.015625	-44.633286
2416.992188	-45.126465
2417.968750	-45.399017
2418.945312	-46.128239
2419.921875	-46.066807
2420.898438	-44.875805
2421.875000	-44.387123
2422.851562	-44.650265
2423.828125	-44.527847
2424.804688	-44.924004
2425.781250	-44.335423
2426.757812	-45.363277
2427.734375	-46.720142
2428.710938	-45.933300
2429.687500	-44.760883
2430.664062	-43.398476
2431.640625	-42.976105
2432.617188	-42.373367
2433.593750	-43.596130
2434.570312	-43.258522
2435.546875	-42.070992
2436.523438	-41.796726
2437.500000	-42.474445
2438.476562	-43.540264
2439.453125	-44.852829
2440.429688	-44.637817
2441.406250	-44.671860
2442.382812	-46.266376
2443.359375	-43.790684
2444.335938	-43.237007
2445.312500	-42.177933
2446.289062	-42.275913
2447.265625	-44.545918
2448.242188	-44.590565
2449.218750	-44.550999
2450.195312	-42.511032
2451.171875	-42.497837
2452.148438	-42.372524
2453.125000	-42.458641
2454.101562	-42.272243
2455.078125	-40.949432
2456.054688	-40.643608
2457.031250	-42.885490
2458.007812	-43.895889
2458.984375	-42.048512
2459.960938	-41.091301
2460.937500	-41.300312
2461.914062	-39.085407
2462.890625	-40.880322
2463.867188	-42.345898
2464.843750	-41.186691
2465.820312	-39.887615
2466.796875	-39.473656
2467.773438	-42.529785
2468.750000	-41.548996
2469.726562	-43.021805
2470.703125	-43.337860
2471.679688	-42.826881
2472.656250	-43.158096
2473.632812	-43.297890
2474.609375	-39.679626
2475.585938	-41.938263
2476.562500	-39.225487
2477.539062	-39.077793
2478.515625	-38.107002
2479.492188	-39.328037
2480.468750	-40.370865
2481.445312	-37.948868
2482.421875	-38.874287
2483.398438	-38.691616
2484.375000	-39.855980
2485.351562	-39.368954
2486.328125	-39.606964
2487.304688	-40.302837
2488.281250	-41.079487
2489.257812	-40.891350
2490.234375	-41.452118
2491.210938	-40.446533
2492.187500	-39.115223
2493.164062	-40.837704
2494.140625	-37.815140
2495.117188	-38.849606
2496.093750	-37.066502
2497.070312	-38.547592
2498.046875	-37.133884
2499.023438	-38.173618
2500.000000	-39.305496
2500.976562	-38.537655
2501.953125	-37.787483
2502.929688	-34.397408
2503.906250	-34.878860
2504.882812	-36.852253
2505.859375	-37.475819
2506.835938	-38.925362
2507.812500	-37.024403
2508.789062	-38.003742
2509.765625	-38.823181
2510.742188	-37.911339
2511.718750	-37.515347
2512.695312	-35.114571
2513.671875	-38.660637
2514.648438	-38.872498
2515.625000	-35.659958
2516.601562	-36.209312
2517.578125	-32.725220
2518.554688	-35.725857
2519.531250	-36.766304
2520.507812	-35.463226
2521.484375	-35.420963
2522.460938	-34.785477
2523.437500	-33.344048
2524.414062	-35.261879
2525.390625	-34.375103
2526.367188	-33.572899
2527.343750	-33.971336
2528.320312	-33.772949
2529.296875	-36.276482
2530.273438	-36.457626
2531.250000	-35.679771
2532.226562	-37.957901
2533.203125	-34.227085
2534.179688	-33.452061
2535.156250	-33.910427
2536.132812	-33.431644
2537.109375	-35.241310
2538.085938	-32.943321
2539.062500	-34.061295
2540.039062	-33.719681
2541.015625	-33.243320
2541.992188	-33.657307
2542.968750	-34.147045
2543.945312	-34.296776
2544.921875	-33.463631
2545.898438	-33.346828
2546.875000	-31.478771
2547.851562	-32.940792
2548.828125	-30.982948
2549.804688	-33.445599
2550.781250	-33.993462
2551.757812	-33.703594
2552.734375	-35.903267
2553.710938	-33.910805
2554.687500	-33.854527
2555.664062	-32.486370
2556.640625	-32.677723
2557.617188	-31.278425
2558.593750	-32.259727
2559.570312	-32.159073
2560.546875	-31.231499
2561.523438	-32.854500
2562.500000	-35.223305
2563.476562	-31.969742
2564.453125	-32.478775
2565.429688	-32.551315
2566.406250	-32.374016
2567.382812	-29.542374
2568.359375	-31.006407
2569.335938	-30.938503
2570.312500	-31.798359
2571.289062	-33.542362
2572.265625	-33.061600
2573.242188	-31.270807
2574.218750	-32.032581
2575.195312	-33.746956
2576.171875	-32.774677
2577.148438	-31.405134
2578.125000	-29.958752
2579.101562	-28.659328
2580.078125	-30.211620
2581.054688	-34.430622
2582.031250	-33.049782
2583.007812	-32.125820
2583.984375	-32.768238
2584.960938	-32.926376
2585.937500	-32.046047
2586.914062	-32.263584
2587.890625	-32.153133
2588.867188	-34.163761
2589.843750	-32.187050
2590.820312	-30.929756
2591.796875	-32.114349
2592.773438	-33.384521
2593.750000	-33.324490
2594.726562	-33.179951
2595.703125	-32.198235
2596.679688	-33.155567
2597.656250	-33.328156
2598.632812	-33.538166
2599.609375	-32.523777
2600.585938	-34.562477
2601.562500	-33.980484
2602.539062	-32.965508
2603.515625	-33.086555
2604.492188	-33.375282
2605.468750	-33.427700
2606.445312	-35.003513
2607.421875	-34.527008
2608.398438	-33.588482
2609.375000	-33.743725
2610.351562	-34.114899
2611.328125	-33.153423
2612.304688	-34.758698
2613.281250	-35.696804
2614.257812	-35.044300
2615.234375	-34.144459
2616.210938	-33.806042
2617.187500	-32.802044
2618.164062	-34.043106
2619.140625	-34.954945
2620.117188	-33.219204
2621.093750	-33.450092
2622.070312	-34.593853
2623.046875	-34.466263
2624.023438	-34.282974
2625.000000	-35.321831
2625.976562	-33.678940
2626.953125	-33.133694
2627.929688	-32.882305
2628.906250	-31.972679
2629.882812	-33.272392
2630.859375	-33.471039
2631.835938	-33.992661
2632.812500	-35.052254
2633.789062	-35.463985
2634.765625	-34.871941
2635.742188	-35.122368
2636.718750	-33.392555
2637.695312	-33.726765
2638.671875	-34.757023
2639.648438	-31.415497
2640.625000	-34.425789
2641.601562	-33.753960
2642.578125	-31.817890
2643.554688	-34.413589
2644.531250	-34.007755
2645.507812	-32.809227
2646.484375	-31.870794
2647.460938	-32.660145
2648.437500	-33.313705
2649.414062	-32.879322
2650.390625	-32.081211
2651.367188	-32.979210
2652.343750	-32.245419
2653.320312	-32.811146
2654.296875	-33.950729
2655.273438	-32.551601
2656.250000	-34.223244
2657.226562	-33.538807
2658.203125	-33.301041
2659.179688	-34.505363
2660.156250	-33.496075
2661.132812	-34.434273
2662.109375	-34.730732
2663.085938	-33.387745
2664.062500	-32.853817
2665.039062	-34.809082
2666.015625	-33.307240
2666.992188	-32.341850
2667.968750	-33.115295
2668.945312	-33.905132
2669.921875	-34.503082
2670.898438	-32.888226
2671.875000	-32.926960
2672.851562	-34.548794
2673.828125	-35.506798
2674.804688	-33.953114
2675.781250	-34.630161
2676.757812	-34.580097
2677.734375	-32.880711
2678.710938	-33.070290
2679.687500	-33.158672
2680.664062	-34.429905
2681.640625	-34.405640
2682.617188	-34.741959
2683.593750	-33.648182
2684.570312	-35.410393
2685.546875	-33.815250
2686.523438	-33.434242
2687.500000	-34.759747
2688.476562	-34.919216
2689.453125	-35.333843
2690.429688	-35.750381
2691.406250	-33.829582
2692.382812	-31.977350
2693.359375	-33.652557
2694.335938	-34.811111
2695.312500	-35.974697
2696.289062	-36.112484
2697.265625	-34.101627
2698.242188	-34.373112
2699.218750	-35.056263
2700.195312	-33.995567
2701.171875	-33.969353
2702.148438	-36.182198
2703.125000	-35.868916
2704.101562	-35.441383
2705.078125	-36.030334
2706.054688	-34.826126
2707.031250	-33.783737
2708.007812	-35.429600
2708.984375	-35.375492
2709.960938	-37.881458
2710.937500	-36.821850
2711.914062	-34.823204
2712.890625	-36.109024
2713.867188	-36.028099
2714.843750	-36.258549
2715.820312	-36.268864
2716.796875	-34.264381
2717.773438	-37.121708
2718.750000	-36.508614
2719.726562	-37.729000
2720.703125	-35.796875
2721.679688	-36.366032
2722.656250	-37.504196
2723.632812	-36.540501
2724.609375	-36.518143
2725.585938	-39.208961
2726.562500	-36.850105
2727.539062	-36.623169
2728.515625	-38.060654
2729.492188	-36.546188
2730.468750	-36.075062
2731.445312	-36.753178
2732.421875	-37.781952
2733.398438	-37.688824
2734.375000	-38.911407
2735.351562	-37.788071
2736.328125	-39.131969
2737.304688	-39.779144
2738.281250	-37.715187
2739.257812	-37.376656
2740.234375	-38.197666
2741.210938	-37.711948
2742.187500	-38.597607
2743.164062	-38.348312
2744.140625	-38.512642
2745.117188	-39.038609
2746.093750	-39.158722
2747.070312	-39.357254
2748.046875	-39.782825
2749.023438	-41.753429
2750.000000	-39.624817
2750.976562	-39.617218
2751.953125	-41.062538
2752.929688	-40.515530
2753.906250	-38.035999
2754.882812	-40.122715
2755.859375	-39.200634
2756.835938	-41.040230
2757.812500	-39.424706
2758.789062	-38.951923
2759.765625	-40.133102
2760.742188	-42.163162
2761.718750	-43.572979
2762.695312	-42.288567
2763.671875	-41.056488
2764.648438	-41.670609
2765.625000	-41.918736
2766.601562	-40.576698
2767.578125	-41.105247
2768.554688	-43.120350
2769.531250	-42.494160
2770.507812	-40.997269
2771.484375	-41.469688
2772.460938	-41.729511
2773.437500	-42.661602
2774.414062	-40.548908
2775.390625	-41.922894
2776.367188	-43.103722
2777.343750	-42.833328
2778.320312	-43.366844
2779.296875	-43.407906
2780.273438	-42.336842
2781.250000	-44.475933
2782.226562	-43.332981
2783.203125	-43.221840
2784.179688	-44.090416
2785.156250	-43.721260
2786.132812	-43.647114
2787.109375	-42.808331
2788.085938	-42.959602
2789.062500	-44.228573
2790.039062	-44.449547
2791.015625	-43.263130
2791.992188	-44.867592
2792.968750	-44.842430
2793.945312	-43.958904
2794.921875	-45.099613
2795.898438	-44.506161
2796.875000	-45.009281
2797.851562	-45.891518
2798.828125	-45.014603
2799.804688	-44.472675
2800.781250	-45.490891
2801.757812	-44.897388
2802.734375	-44.122849
2803.710938	-44.961262
2804.687500	-45.354565
2805.664062	-45.755177
2806.640625	-44.129219
2807.617188	-43.857327
2808.593750	-44.114788
2809.570312	-44.006001
2810.546875	-44.651367
2811.523438	-44.080299
2812.500000	-44.303249
2813.476562	-44.806149
2814.453125	-44.635189
2815.429688	-45.350086
2816.406250	-43.092995
2817.382812	-44.677296
2818.359375	-44.055683
2819.335938	-44.204891
2820.312500	-43.695423
2821.289062	-44.579338
2822.265625	-43.803677
2823.242188	-43.208542
2824.218750	-45.533211
2825.195312	-43.855202
2826.171875	-45.437454
2827.148438	-45.492371
2828.125000	-43.291084
2829.101562	-45.736191
2830.078125	-45.443924
2831.054688	-43.479439
2832.031250	-45.251396
2833.007812	-44.541969
2833.984375	-43.703522
2834.960938	-44.662609
2835.937500	-45.136875
2836.914062	-43.493393
2837.890625	-43.677780
2838.867188	-44.633564
2839.843750	-42.208866
2840.820312	-43.280560
2841.796875	-42.033863
2842.773438	-41.459801
2843.750000	-41.678127
2844.726562	-43.635220
2845.703125	-41.770336
2846.679688	-42.773354
2847.656250	-42.397942
2848.632812	-43.567665
2849.609375	-45.101429
2850.585938	-45.239487
2851.562500	-45.202183
2852.539062	-43.348297
2853.515625	-44.542801
2854.492188	-43.253971
2855.468750	-42.459255
2856.445312	-45.243042
2857.421875	-41.806580
2858.398438	-44.283890
2859.375000	-43.531982
2860.351562	-42.446152
2861.328125	-43.960995
2862.304688	-42.714478
2863.281250	-42.707947
2864.257812	-44.842834
2865.234375	-42.617508
2866.210938	-43.142590
2867.187500	-42.316833
2868.164062	-41.926151
2869.140625	-42.592884
2870.117188	-43.040211
2871.093750	-41.553001
2872.070312	-40.661072
2873.046875	-41.898563
2874.023438	-40.716969
2875.000000	-41.337433
2875.976562	-41.239105
2876.953125	-40.048771
2877.929688	-40.889572
2878.906250	-42.121830
2879.882812	-40.648861
2880.859375	-42.330444
2881.835938	-43.695732
2882.812500	-43.563358
2883.789062	-44.107140
2884.765625	-43.556038
2885.742188	-43.131432
2886.718750	-43.402447
2887.695312	-42.190350
2888.671875	-43.779491
2889.648438	-42.152439
2890.625000	-41.700592
2891.601562	-40.615150
2892.578125	-42.239883
2893.554688	-39.888599
2894.531250	-41.497128
2895.507812	-41.186348
2896.484375	-40.365746
2897.460938	-42.388744
2898.437500	-40.868198
2899.414062	-40.999657
2900.390625	-40.222057
2901.367188	-40.140076
2902.343750	-40.854404
2903.320312	-42.032547
2904.296875	-41.571171
2905.273438	-39.035751
2906.250000	-40.147072
2907.226562	-39.169357
2908.203125	-37.876369
2909.179688	-38.867966
2910.156250	-37.651417
2911.132812	-38.223900
2912.109375	-38.460747
2913.085938	-38.621254
2914.062500	-38.459587
2915.039062	-39.575996
2916.015625	-39.479301
2916.992188	-38.838055
2917.968750	-40.247787
2918.945312	-39.548141
2919.921875	-39.500446
2920.898438	-37.302876
2921.875000	-39.119030
2922.851562	-37.878971
2923.828125	-37.769531
2924.804688	-37.935963
2925.781250	-37.150692
2926.757812	-37.122437
2927.734375	-36.971336
2928.710938	-36.965572
2929.687500	-37.106621
2930.664062	-36.557861
2931.640625	-36.515617
2932.617188	-37.354099
2933.593750	-37.434940
2934.570312	-37.937237
2935.546875	-37.654064
2936.523438	-37.278812
2937.500000	-36.855827
2938.476562	-35.250465
2939.453125	-35.081139
2940.429688	-34.386620
2941.406250	-35.686039
2942.382812	-34.661854
2943.359375	-35.940037
2944.335938	-35.704971
2945.312500	-35.005051
2946.289062	-35.897137
2947.265625	-35.906296
2948.242188	-35.632793
2949.218750	-37.706371
2950.195312	-36.853558
2951.171875	-35.853519
2952.148438	-34.929886
2953.125000	-34.297253
2954.101562	-34.199570
2955.078125	-34.556633
2956.054688	-34.782898
2957.031250	-34.558323
2958.007812	-35.004337
2958.984375	-35.083847
2959.960938	-35.643131
2960.937500	-34.553387
2961.914062	-34.789700
2962.890625	-34.525272
2963.867188	-33.885448
2964.843750	-34.593781
2965.820312	-34.485435
2966.796875	-34.393990
2967.773438	-33.781921
2968.750000	-33.107365
2969.726562	-33.429096
2970.703125	-33.541473
2971.679688	-33.951599
2972.656250	-34.489521
2973.632812	-33.293987
2974.609375	-34.099018
2975.585938	-34.397358
2976.562500	-33.805706
2977.539062	-31.783632
2978.515625	-32.852154
2979.492188	-33.501350
2980.468750	-32.869926
2981.445312	-32.871765
2982.421875	-34.571564
2983.398438	-34.252235
2984.375000	-33.435814
2985.351562	-32.327553
2986.328125	-33.091812
2987.304688	-33.361580
2988.281250	-32.849537
2989.257812	-32.710873
2990.234375	-33.366516
2991.210938	-33.488693
2992.187500	-33.957443
2993.164062	-32.712524
2994.140625	-32.782593
2995.117188	-33.365810
2996.093750	-31.594156
2997.070312	-32.993290
2998.046875	-33.218597
2999.023438	-32.884647
3000.000000	-32.717648
3000.976562	-32.060989
3001.953125	-33.908188
3002.929688	-33.794407
3003.906250	-32.842613
3004.882812	-33.061024
3005.859375	-33.085861
3006.835938	-33.478180
3007.812500	-32.048244
3008.789062	-32.214207
3009.765625	-30.808950
3010.742188	-32.400558
3011.718750	-31.762589
3012.695312	-31.767347
3013.671875	-31.618040
3014.648438	-32.280941
3015.625000	-30.976587
3016.601562	-30.026936
3017.578125	-32.161289
3018.554688	-30.589861
3019.531250	-30.968929
3020.507812	-31.350491
3021.484375	-32.188953
3022.460938	-32.869133
3023.437500	-32.030075
3024.414062	-32.123878
3025.390625	-31.203222
3026.367188	-32.442280
3027.343750	-31.718788
3028.320312	-30.592739
3029.296875	-28.722881
3030.273438	-31.848789
3031.250000	-30.717688
3032.226562	-30.951565
3033.203125	-32.329731
3034.179688	-30.391569
3035.156250	-31.035070
3036.132812	-31.535570
3037.109375	-31.380775
3038.085938	-30.751663
3039.062500	-29.851652
3040.039062	-30.302649
3041.015625	-30.288794
3041.992188	-30.005705
3042.968750	-29.665800
3043.945312	-29.313293
3044.921875	-29.809084
3045.898438	-30.066145
3046.875000	-30.101599
3047.851562	-29.891956
3048.828125	-28.458954
3049.804688	-29.742985
3050.781250	-30.847004
3051.757812	-29.989140
3052.734375	-29.940498
3053.710938	-29.196070
3054.687500	-30.539597
3055.664062	-27.878248
3056.640625	-27.516779
3057.617188	-28.580051
3058.593750	-29.028793
3059.570312	-28.862789
3060.546875	-29.576288
3061.523438	-30.561506
3062.500000	-28.327450
3063.476562	-28.878672
3064.453125	-30.771170
3065.429688	-30.021326
3066.406250	-29.541321
3067.382812	-29.241522
3068.359375	-29.284657
3069.335938	-28.737978
3070.312500	-28.377947
3071.289062	-28.763260
3072.265625	-29.214735
3073.242188	-28.805750
3074.218750	-28.252947
3075.195312	-30.346941
3076.171875	-29.500763
3077.148438	-29.941936
3078.125000	-28.973372
3079.101562	-29.369446
3080.078125	-28.839201
3081.054688	-28.055878
3082.031250	-29.077934
3083.007812	-28.944916
3083.984375	-29.472958
3084.960938	-29.534264
3085.937500	-29.611784
3086.914062	-29.670040
3087.890625	-30.587549
3088.867188	-28.603710
3089.843750	-29.783894
3090.820312	-29.960747
3091.796875	-29.403414
3092.773438	-28.611525
3093.750000	-27.623035
3094.726562	-27.416759
3095.703125	-28.085493
3096.679688	-27.840660
3097.656250	-28.078583
3098.632812	-28.680754
3099.609375	-27.708975
3100.585938	-27.051933
3101.562500	-27.096460
3102.539062	-29.235395
3103.515625	-28.475130
3104.492188	-28.534309
3105.468750	-27.898212
3106.445312	-27.830055
3107.421875	-27.743553
3108.398438	-27.931019
3109.375000	-28.912928
3110.351562	-28.546503
3111.328125	-28.064329
3112.304688	-27.920311
3113.281250	-28.273848
3114.257812	-27.241522
3115.234375	-27.176712
3116.210938	-28.364109
3117.187500	-28.105778
3118.164062	-27.857252
3119.140625	-27.716085
3120.117188	-27.441423
3121.093750	-27.557028
3122.070312	-28.317028
3123.046875	-28.205086
3124.023438	-27.320879
3125.000000	-27.034330
3125.976562	-27.593641
3126.953125	-27.800541
3127.929688	-27.528006
3128.906250	-26.744242
3129.882812	-27.117153
3130.859375	-28.770632
3131.835938	-28.107304
3132.812500	-28.828970
3133.789062	-28.082256
3134.765625	-27.473408
3135.742188	-27.767859
3136.718750	-27.613346
3137.695312	-27.511003
3138.671875	-27.961926
3139.648438	-28.524012
3140.625000	-27.402708
3141.601562	-25.234098
3142.578125	-25.072376
3143.554688	-25.542990
3144.531250	-26.751022
3145.507812	-27.475231
3146.484375	-30.266716
3147.460938	-29.352978
3148.437500	-28.671843
3149.414062	-28.846735
3150.390625	-27.912699
3151.367188	-28.809055
3152.343750	-29.044621
3153.320312	-28.813219
3154.296875	-30.681231
3155.273438	-30.075222
3156.250000	-30.725977
3157.226562	-29.849348
3158.203125	-29.924173
3159.179688	-29.484924
3160.156250	-28.886608
3161.132812	-29.917723
3162.109375	-31.125048
3163.085938	-29.591944
3164.062500	-28.819098
3165.039062	-28.259317
3166.015625	-28.936985
3166.992188	-27.820961
3167.968750	-28.877298
3168.945312	-28.937922
3169.921875	-29.091646
3170.898438	-28.949911
3171.875000	-29.068501
3172.851562	-29.217476
3173.828125	-29.794918
3174.804688	-29.232328
3175.781250	-28.883476
3176.757812	-28.884327
3177.734375	-29.249233
3178.710938	-30.187550
3179.687500	-27.232229
3180.664062	-27.976566
3181.640625	-29.725729
3182.617188	-28.860819
3183.593750	-28.616590
3184.570312	-26.763836
3185.546875	-26.673071
3186.523438	-27.736431
3187.500000	-28.251770
3188.476562	-28.775209
3189.453125	-29.943336
3190.429688	-30.595493
3191.406250	-28.543657
3192.382812	-28.009596
3193.359375	-27.528965
3194.335938	-28.621361
3195.312500	-28.272919
3196.289062	-28.625027
3197.265625	-29.695211
3198.242188	-29.975458
3199.218750	-29.981186
3200.195312	-29.898767
3201.171875	-29.518106
3202.148438	-30.663673
3203.125000	-28.810871
3204.101562	-29.318613
3205.078125	-28.468704
3206.054688	-30.805820
3207.031250	-30.559448
3208.007812	-29.393074
3208.984375	-30.193474
3209.960938	-29.039804
3210.937500	-29.646881
3211.914062	-30.167040
3212.890625	-29.227100
3213.867188	-31.003860
3214.843750	-30.304930
3215.820312	-30.043501
3216.796875	-31.468563
3217.773438	-32.487709
3218.750000	-31.683876
3219.726562	-30.771528
3220.703125	-30.301069
3221.679688	-32.282440
3222.656250	-32.146633
3223.632812	-31.908422
3224.609375	-31.706203
3225.585938	-29.985025
3226.562500	-30.189524
3227.539062	-30.641207
3228.515625	-31.340839
3229.492188	-31.116056
3230.468750	-32.123550
3231.445312	-32.225349
3232.421875	-33.236645
3233.398438	-31.969595
3234.375000	-31.991249
3235.351562	-32.629726
3236.328125	-32.156521
3237.304688	-32.559414
3238.281250	-32.016815
3239.257812	-32.217617
3240.234375	-33.254299
3241.210938	-32.370197
3242.187500	-32.889740
3243.164062	-32.026077
3244.140625	-33.015347
3245.117188	-32.952412
3246.093750	-32.273731
3247.070312	-32.407295
3248.046875	-32.633507
3249.023438	-34.685001
3250.000000	-32.800110
3250.976562	-34.303497
3251.953125	-33.358387
3252.929688	-33.091339
3253.906250	-32.822365
3254.882812	-33.919849
3255.859375	-34.001842
3256.835938	-35.644367
3257.812500	-35.503014
3258.789062	-33.340584
3259.765625	-34.625015
3260.742188	-33.886833
3261.718750	-33.560448
3262.695312	-33.491138
3263.671875	-34.298462
3264.648438	-34.636623
3265.625000	-34.449108
3266.601562	-35.085346
3267.578125	-34.125294
3268.554688	-36.032696
3269.531250	-36.049133
3270.507812	-35.011555
3271.484375	-34.407181
3272.460938	-36.156624
3273.437500	-35.940559
3274.414062	-36.334892
3275.390625	-36.112286
3276.367188	-35.133327
3277.343750	-34.717144
3278.320312	-35.920269
3279.296875	-35.898865
3280.273438	-37.066235
3281.250000	-35.868019
3282.226562	-37.043991
3283.203125	-36.676823
3284.179688	-37.666344
3285.156250	-37.388878
3286.132812	-37.591015
3287.109375	-37.001865
3288.085938	-35.496521
3289.062500	-37.015255
3290.039062	-39.084774
3291.015625	-37.828232
3291.992188	-37.657845
3292.968750	-37.980873
3293.945312	-37.867077
3294.921875	-38.275391
3295.898438	-38.090477
3296.875000	-39.019775
3297.851562	-39.189560
3298.828125	-40.082943
3299.804688	-39.052734
3300.781250	-39.019360
3301.757812	-38.692974
3302.734375	-40.073898
3303.710938	-39.811874
3304.687500	-39.304775
3305.664062	-39.341518
3306.640625	-40.550873
3307.617188	-41.364456
3308.593750	-40.321239
3309.570312	-39.708076
3310.546875	-40.873638
3311.523438	-39.588436
3312.500000	-39.712944
3313.476562	-40.064190
3314.453125	-43.196999
3315.429688	-42.910160
3316.406250	-42.513302
3317.382812	-42.392273
3318.359375	-40.136662
3319.335938	-41.929401
3320.312500	-42.851192
3321.289062	-43.367760
3322.265625	-42.932190
3323.242188	-42.450302
3324.218750	-43.674011
3325.195312	-43.667068
3326.171875	-43.967503
3327.148438	-43.226063
3328.125000	-42.898312
3329.101562	-42.747662
3330.078125	-43.048439
3331.054688	-44.759041
3332.031250	-44.438175
3333.007812	-43.858402
3333.984375	-44.789867
3334.960938	-44.994480
3335.937500	-44.852348
3336.914062	-44.117359
3337.890625	-44.846630
3338.867188	-44.239090
3339.843750	-44.810570
3340.820312	-44.954990
3341.796875	-46.059868
3342.773438	-46.156952
3343.750000	-45.276413
3344.726562	-45.739765
3345.703125	-47.256657
3346.679688	-46.398689
3347.656250	-47.698776
3348.632812	-47.656647
3349.609375	-46.789459
3350.585938	-46.268417
3351.562500	-46.726978
3352.539062	-47.097572
3353.515625	-46.418770
3354.492188	-47.077152
3355.468750	-45.336018
3356.445312	-45.683582
3357.421875	-46.918762
3358.398438	-45.876461
3359.375000	-45.540165
3360.351562	-46.601746
3361.328125	-46.676414
3362.304688	-47.872601
3363.281250	-49.036072
3364.257812	-46.795967
3365.234375	-47.760750
3366.210938	-47.495506
3367.187500	-49.306480
3368.164062	-47.163261
3369.140625	-47.799896
3370.117188	-48.739254
3371.093750	-47.943295
3372.070312	-47.448040
3373.046875	-47.354916
3374.023438	-47.748337
3375.000000	-48.142754
3375.976562	-48.143669
3376.953125	-46.935711
3377.929688	-47.930935
3378.906250	-47.160530
3379.882812	-47.119797
3380.859375	-47.996532
3381.835938	-48.369678
3382.812500	-48.689037
3383.789062	-48.827915
3384.765625	-47.555954
3385.742188	-48.388443
3386.718750	-48.256252
3387.695312	-48.813911
3388.671875	-49.236820
3389.648438	-47.813358
3390.625000	-47.787704
3391.601562	-47.814987
3392.578125	-48.243603
3393.554688	-48.097324
3394.531250	-49.511787
3395.507812	-47.316105
3396.484375	-47.724796
3397.460938	-47.629635
3398.437500	-48.571182
3399.414062	-47.871159
3400.390625	-48.995895
3401.367188	-49.197132
3402.343750	-48.597446
3403.320312	-47.380264
3404.296875	-47.401688
3405.273438	-48.138313
3406.250000	-48.799026
3407.226562	-48.106190
3408.203125	-48.266712
3409.179688	-48.889172
3410.156250	-48.956020
3411.132812	-48.426376
3412.109375	-48.735012
3413.085938	-48.914780
3414.062500	-49.526703
3415.039062	-48.145123
3416.015625	-48.099773
3416.992188	-47.175774
3417.968750	-49.075413
3418.945312	-47.516983
3419.921875	-48.653549
3420.898438	-46.555885
3421.875000	-47.479622
3422.851562	-48.565285
3423.828125	-47.168270
3424.804688	-48.929890
3425.781250	-48.511143
3426.757812	-49.319756
3427.734375	-49.216335
3428.710938	-48.599590
3429.687500	-49.131245
3430.664062	-46.643421
3431.640625	-46.431946
3432.617188	-47.944130
3433.593750	-47.784790
3434.570312	-46.449535
3435.546875	-47.172802
3436.523438	-48.097153
3437.500000	-47.737823
3438.476562	-46.301640
3439.453125	-47.223015
3440.429688	-47.132324
3441.406250	-48.165871
3442.382812	-48.829594
3443.359375	-48.262051
3444.335938	-47.226498
3445.312500	-48.041523
3446.289062	-47.249210
3447.265625	-49.357304
3448.242188	-47.310581
3449.218750	-46.550133
3450.195312	-48.050648
3451.171875	-47.268852
3452.148438	-46.848202
3453.125000	-47.767879
3454.101562	-46.394600
3455.078125	-46.689289
3456.054688	-46.257317
3457.031250	-46.708763
3458.007812	-46.696579
3458.984375	-46.966301
3459.960938	-47.160114
3460.937500	-46.382332
3461.914062	-46.747246
3462.890625	-49.072433
3463.867188	-48.238377
3464.843750	-48.378895
3465.820312	-47.434769
3466.796875	-47.032742
3467.773438	-48.442684
3468.750000	-47.039246
3469.726562	-45.289276
3470.703125	-46.544559
3471.679688	-45.130566
3472.656250	-44.634659
3473.632812	-47.236362
3474.609375	-48.281757
3475.585938	-48.021320
3476.562500	-46.498421
3477.539062	-46.490093
3478.515625	-48.172577
3479.492188	-45.384892
3480.468750	-47.286083
3481.445312	-46.529865
3482.421875	-46.097897
3483.398438	-45.993401
3484.375000	-46.626640
3485.351562	-48.309158
3486.328125	-46.439678
3487.304688	-46.503094
3488.281250	-46.403259
3489.257812	-46.854496
3490.234375	-45.503529
3491.210938	-46.407696
3492.187500	-47.167160
3493.164062	-46.005173
3494.140625	-46.463875
3495.117188	-44.840309
3496.093750	-44.841061
3497.070312	-46.397469
3498.046875	-45.923882
3499.023438	-48.170547
3500.000000	-45.767094
3500.976562	-46.091190
3501.953125	-44.747368
3502.929688	-46.266140
3503.906250	-45.731674
3504.882812	-47.617706
3505.859375	-45.738647
3506.835938	-45.184540
3507.812500	-45.665962
3508.789062	-46.090710
3509.765625	-45.441364
3510.742188	-43.354309
3511.718750	-43.952747
3512.695312	-42.181465
3513.671875	-44.000088
3514.648438	-43.836731
3515.625000	-43.782459
3516.601562	-44.665493
3517.578125	-42.636799
3518.554688	-43.194469
3519.531250	-43.494049
3520.507812	-43.756847
3521.484375	-43.854916
3522.460938	-43.914604
3523.437500	-43.951172
3524.414062	-43.086060
3525.390625	-41.939342
3526.367188	-43.939243
3527.343750	-41.742020
3528.320312	-42.439674
3529.296875	-43.292099
3530.273438	-42.707623
3531.250000	-40.803673
3532.226562	-42.145271
3533.203125	-43.575317
3534.179688	-42.113766
3535.156250	-41.138710
3536.132812	-40.489944
3537.109375	-41.784313
3538.085938	-41.784733
3539.062500	-42.333057
3540.039062	-42.237240
3541.015625	-43.497707
3541.992188	-41.459621
3542.968750	-42.718208
3543.945312	-42.822136
3544.921875	-42.128933
3545.898438	-40.910252
3546.875000	-41.792259
3547.851562	-41.579605
3548.828125	-40.899384
3549.804688	-40.615204
3550.781250	-39.773918
3551.757812	-39.330856
3552.734375	-40.577755
3553.710938	-39.444843
3554.687500	-41.222752
3555.664062	-40.347031
3556.640625	-39.274937
3557.617188	-39.891788
3558.593750	-39.733593
3559.570312	-40.441319
3560.546875	-40.003445
3561.523438	-41.042824
3562.500000	-40.449867
3563.476562	-40.250599
3564.453125	-40.999744
3565.429688	-40.224857
3566.406250	-38.448605
3567.382812	-38.754364
3568.359375	-39.243774
3569.335938	-39.519062
3570.312500	-39.189091
3571.289062	-39.484943
3572.265625	-40.183784
3573.242188	-38.057182
3574.218750	-39.357986
3575.195312	-38.667152
3576.171875	-39.532047
3577.148438	-39.481144
3578.125000	-39.737431
3579.101562	-40.724781
3580.078125	-39.020519
3581.054688	-39.093815
3582.031250	-39.118286
3583.007812	-39.572605
3583.984375	-39.616016
3584.960938	-37.429485
3585.937500	-39.124031
3586.914062	-39.960037
3587.890625	-38.135441
3588.867188	-39.192471
3589.843750	-39.632950
3590.820312	-39.703373
3591.796875	-40.333191
3592.773438	-38.075920
3593.750000	-37.556519
3594.726562	-37.740108
3595.703125	-36.161377
3596.679688	-36.532513
3597.656250	-37.358292
3598.632812	-36.737999
3599.609375	-37.520874
3600.585938	-39.953537
3601.562500	-38.685513
3602.539062	-36.441864
3603.515625	-38.389114
3604.492188	-38.341206
3605.468750	-38.057205
3606.445312	-39.465015
3607.421875	-38.286671
3608.398438	-36.628754
3609.375000	-37.036999
3610.351562	-37.123680
3611.328125	-36.908669
3612.304688	-37.799187
3613.281250	-37.461155
3614.257812	-36.200619
3615.234375	-36.276409
3616.210938	-36.147488
3617.187500	-37.207699
3618.164062	-36.802601
3619.140625	-36.587109
3620.117188	-37.371662
3621.093750	-37.437870
3622.070312	-37.615143
3623.046875	-38.150780
3624.023438	-38.380238
3625.000000	-36.855122
3625.976562	-37.030594
3626.953125	-36.289970
3627.929688	-36.623505
3628.906250	-36.318672
3629.882812	-37.608974
3630.859375	-38.198444
3631.835938	-37.699566
3632.812500	-36.782276
3633.789062	-36.976334
3634.765625	-36.446327
3635.742188	-36.311352
3636.718750	-37.935802
3637.695312	-38.669395
3638.671875	-37.590511
3639.648438	-39.287449
3640.625000	-37.221401
3641.601562	-36.992134
3642.578125	-38.408157
3643.554688	-37.902016
3644.531250	-37.855419
3645.507812	-38.699940
3646.484375	-38.102928
3647.460938	-37.912468
3648.437500	-38.211407
3649.414062	-37.466785
3650.390625	-36.567509
3651.367188	-36.217670
3652.343750	-36.988525
3653.320312	-38.035725
3654.296875	-38.146500
3655.273438	-37.122879
3656.250000	-36.561924
3657.226562	-35.586655
3658.203125	-36.865997
3659.179688	-36.178940
3660.156250	-36.216492
3661.132812	-36.731911
3662.109375	-37.524223
3663.085938	-37.465851
3664.062500	-37.260262
3665.039062	-38.199329
3666.015625	-37.453762
3666.992188	-38.689976
3667.968750	-37.468189
3668.945312	-35.926033
3669.921875	-36.599003
3670.898438	-37.168533
3671.875000	-37.699211
3672.851562	-36.926369
3673.828125	-36.343651
3674.804688	-35.669807
3675.781250	-34.734573
3676.757812	-36.255161
3677.734375	-35.678181
3678.710938	-38.227478
3679.687500	-38.070335
3680.664062	-37.649258
3681.640625	-37.473583
3682.617188	-36.924999
3683.593750	-37.982853
3684.570312	-37.383133
3685.546875	-36.535538
3686.523438	-37.034477
3687.500000	-36.987400
3688.476562	-37.148685
3689.453125	-38.323242
3690.429688	-38.435444
3691.406250	-38.110565
3692.382812	-40.208878
3693.359375	-38.823792
3694.335938	-38.899967
3695.312500	-39.005680
3696.289062	-37.436611
3697.265625	-39.210194
3698.242188	-38.552071
3699.218750	-38.825596
3700.195312	-38.694935
3701.171875	-36.681637
3702.148438	-38.338932
3703.125000	-38.050083
3704.101562	-37.665527
3705.078125	-38.084274
3706.054688	-37.575302
3707.031250	-39.318829
3708.007812	-39.893509
3708.984375	-38.585316
3709.960938	-38.355824
3710.937500	-39.136719
3711.914062	-40.360924
3712.890625	-39.959534
3713.867188	-40.501308
3714.843750	-38.370243
3715.820312	-39.549034
3716.796875	-39.802528
3717.773438	-40.684166
3718.750000	-40.935505
3719.726562	-40.676224
3720.703125	-40.780464
3721.679688	-38.188713
3722.656250	-40.208805
3723.632812	-39.741959
3724.609375	-42.021091
3725.585938	-41.729691
3726.562500	-41.036301
3727.539062	-41.834236
3728.515625	-39.770393
3729.492188	-39.660362
3730.468750	-40.986553
3731.445312	-42.089321
3732.421875	-40.285568
3733.398438	-41.169746
3734.375000	-40.484848
3735.351562	-40.969479
3736.328125	-43.624771
3737.304688	-44.368069
3738.281250	-42.186993
3739.257812	-42.666473
3740.234375	-42.216278
3741.210938	-41.069027
3742.187500	-41.241547
3743.164062	-43.019203
3744.140625	-43.144604
3745.117188	-43.422848
3746.093750	-42.429062
3747.070312	-41.580605
3748.046875	-43.528725
3749.023438	-41.326496
3750.000000	-42.589180
3750.976562	-43.635056
3751.953125	-41.460373
3752.929688	-43.672661
3753.906250	-44.479622
3754.882812	-43.917973
3755.859375	-44.669846
3756.835938	-44.727875
3757.812500	-45.136246
3758.789062	-44.864853
3759.765625	-45.431217
3760.742188	-43.594791
3761.718750	-43.415474
3762.695312	-45.319313
3763.671875	-45.770145
3764.648438	-43.247414
3765.625000	-45.039562
3766.601562	-43.272308
3767.578125	-44.410881
3768.554688	-45.132492
3769.531250	-42.255798
3770.507812	-45.262371
3771.484375	-44.815899
3772.460938	-44.998604
3773.437500	-45.834728
3774.414062	-45.961033
3775.390625	-46.403275
3776.367188	-46.222294
3777.343750	-46.550602
3778.320312	-46.183994
3779.296875	-46.990913
3780.273438	-45.912792
3781.250000	-47.040009
3782.226562	-46.865841
3783.203125	-48.394669
3784.179688	-46.219059
3785.156250	-45.173237
3786.132812	-45.760868
3787.109375	-45.563740
3788.085938	-44.535099
3789.062500	-45.918213
3790.039062	-46.182949
3791.015625	-47.973209
3791.992188	-47.691147
3792.968750	-48.078178
3793.945312	-46.740833
3794.921875	-47.452282
3795.898438	-48.252560
3796.875000	-48.311340
3797.851562	-47.678932
3798.828125	-48.197632
3799.804688	-50.059750
3800.781250	-47.745129
3801.757812	-47.656570
3802.734375	-49.477505
3803.710938	-48.529510
3804.687500	-48.655598
3805.664062	-48.719574
3806.640625	-47.248363
3807.617188	-47.724178
3808.593750	-46.905949
3809.570312	-46.242481
3810.546875	-51.071468
3811.523438	-49.277096
3812.500000	-48.039433
3813.476562	-48.403240
3814.453125	-48.864502
3815.429688	-49.904522
3816.406250	-49.008686
3817.382812	-49.039967
3818.359375	-50.808540
3819.335938	-51.024105
3820.312500	-49.046417
3821.289062	-50.023521
3822.265625	-50.431610
3823.242188	-47.542404
3824.218750	-50.616066
3825.195312	-50.532272
3826.171875	-50.093018
3827.148438	-49.888851
3828.125000	-48.756954
3829.101562	-49.859482
3830.078125	-51.042225
3831.054688	-52.505142
3832.031250	-51.766617
3833.007812	-50.908852
3833.984375	-50.422981
3834.960938	-48.782017
3835.937500	-49.271008
3836.914062	-50.668564
3837.890625	-51.047787
3838.867188	-51.654781
3839.843750	-52.108948
3840.820312	-50.452927
3841.796875	-51.595181
3842.773438	-50.278812
3843.750000	-49.435528
3844.726562	-51.553799
3845.703125	-50.609192
3846.679688	-52.063599
3847.656250	-50.493607
3848.632812	-50.791939
3849.609375	-51.029217
3850.585938	-53.125751
3851.562500	-51.891117
3852.539062	-52.495476
3853.515625	-50.378025
3854.492188	-51.733727
3855.468750	-51.380497
3856.445312	-49.915707
3857.421875	-52.582340
3858.398438	-51.843620
3859.375000	-52.361259
3860.351562	-52.902172
3861.328125	-51.937462
3862.304688	-53.049114
3863.281250	-52.100651
3864.257812	-50.590160
3865.234375	-52.083733
3866.210938	-52.135307
3867.187500	-53.325382
3868.164062	-52.991180
3869.140625	-50.491707
3870.117188	-52.813622
3871.093750	-52.859310
3872.070312	-53.816208
3873.046875	-54.332058
3874.023438	-51.633816
3875.000000	-51.539337
3875.976562	-53.390785
3876.953125	-51.324230
3877.929688	-52.512085
3878.906250	-52.407536
3879.882812	-52.389843
3880.859375	-51.272549
3881.835938	-52.597733
3882.812500	-51.991241
3883.789062	-52.576477
3884.765625	-53.468029
3885.742188	-53.187038
3886.718750	-51.621113
3887.695312	-52.912792
3888.671875	-52.474129
3889.648438	-51.714123
3890.625000	-53.293884
3891.601562	-53.231041
3892.578125	-52.733837
3893.554688	-53.760845
3894.531250	-53.338242
3895.507812	-53.006748
3896.484375	-52.628757
3897.460938	-53.010616
3898.437500	-51.858120
3899.414062	-52.352108
3900.390625	-52.346062
3901.367188	-52.340065
3902.343750	-52.691032
3903.320312	-53.921886
3904.296875	-52.850620
3905.273438	-52.924061
3906.250000	-52.808392
3907.226562	-52.523170
3908.203125	-52.202717
3909.179688	-53.799526
3910.156250	-53.705387
3911.132812	-53.184204
3912.109375	-53.118366
3913.085938	-54.419495
3914.062500	-52.713795
3915.039062	-53.087788
3916.015625	-52.566441
3916.992188	-52.674603
3917.968750	-53.362999
3918.945312	-53.373608
3919.921875	-52.650375
3920.898438	-52.498039
3921.875000	-53.204819
3922.851562	-52.041157
3923.828125	-54.031628
3924.804688	-54.524574
3925.781250	-53.077839
3926.757812	-53.150330
3927.734375	-52.825397
3928.710938	-52.992016
3929.687500	-52.582764
3930.664062	-54.631657
3931.640625	-51.871330
3932.617188	-51.717445
3933.593750	-54.344296
3934.570312	-53.808186
3935.546875	-54.281368
3936.523438	-53.149036
3937.500000	-52.742710
3938.476562	-53.106800
3939.453125	-52.934208
3940.429688	-53.690685
3941.406250	-54.632183
3942.382812	-54.056274
3943.359375	-54.245331
3944.335938	-52.383732
3945.312500	-52.214787
3946.289062	-53.423805
3947.265625	-53.070831
3948.242188	-51.809246
3949.218750	-52.555355
3950.195312	-51.660477
3951.171875	-52.170475
3952.148438	-51.833248
3953.125000	-50.207294
3954.101562	-51.293274
3955.078125	-52.055813
3956.054688	-53.730984
3957.031250	-53.728512
3958.007812	-52.842834
3958.984375	-52.764858
3959.960938	-52.203518
3960.937500	-52.126041
3961.914062	-52.203300
3962.890625	-51.106216
3963.867188	-52.427513
3964.843750	-51.851151
3965.820312	-50.900707
3966.796875	-51.808743
3967.773438	-52.785667
3968.750000	-51.788231
3969.726562	-51.088753
3970.703125	-51.628635
3971.679688	-51.989929
3972.656250	-51.303741
3973.632812	-51.896194
3974.609375	-52.341137
3975.585938	-52.412010
3976.562500	-52.495396
3977.539062	-51.644825
3978.515625	-52.189663
3979.492188	-51.818871
3980.468750	-50.632248
3981.445312	-51.527000
3982.421875	-52.620247
3983.398438	-52.448616
3984.375000	-50.085716
3985.351562	-51.088242
3986.328125	-51.824230
3987.304688	-50.257030
3988.281250	-52.712376
3989.257812	-51.117821
3990.234375	-49.848370
3991.210938	-51.505344
3992.187500	-51.730583
3993.164062	-51.611813
3994.140625	-52.597034
3995.117188	-51.561592
3996.093750	-52.108238
3997.070312	-51.467712
3998.046875	-49.958649
3999.023438	-51.465767
4000.000000	-50.818577
4000.976562	-49.514351
4001.953125	-49.426285
4002.929688	-50.546780
4003.906250	-51.079048
4004.882812	-52.381855
4005.859375	-50.921661
4006.835938	-50.125870
4007.812500	-51.643356
4008.789062	-51.271946
4009.765625	-49.951202
4010.742188	-50.352379
4011.718750	-50.300854
4012.695312	-49.537643
4013.671875	-49.413830
4014.648438	-48.869415
4015.625000	-50.221031
4016.601562	-50.659096
4017.578125	-51.058521
4018.554688	-49.224045
4019.531250	-47.688179
4020.507812	-49.454212
4021.484375	-47.159401
4022.460938	-49.360825
4023.437500	-48.433216
4024.414062	-49.788563
4025.390625	-48.651615
4026.367188	-50.590569
4027.343750	-50.394375
4028.320312	-49.634064
4029.296875	-49.628082
4030.273438	-47.757641
4031.250000	-48.991745
4032.226562	-47.991173
4033.203125	-47.888092
4034.179688	-50.180637
4035.156250	-50.010769
4036.132812	-47.949291
4037.109375	-47.275795
4038.085938	-48.945137
4039.062500	-48.178818
4040.039062	-48.535137
4041.015625	-46.916157
4041.992188	-47.859657
4042.968750	-48.426067
4043.945312	-46.161892
4044.921875	-46.710403
4045.898438	-48.605900
4046.875000	-48.699368
4047.851562	-49.275379
4048.828125	-46.692345
4049.804688	-47.667877
4050.781250	-46.863949
4051.757812	-47.625332
4052.734375	-48.319130
4053.710938	-47.652924
4054.687500	-47.361080
4055.664062	-46.916576
4056.640625	-47.403709
4057.617188	-46.528309
4058.593750	-48.381397
4059.570312	-45.550152
4060.546875	-47.597931
4061.523438	-46.366241
4062.500000	-45.917908
4063.476562	-46.037861
4064.453125	-46.072872
4065.429688	-46.108471
4066.406250	-44.765541
4067.382812	-46.177032
4068.359375	-46.277264
4069.335938	-45.816334
4070.312500	-45.130833
4071.289062	-46.234741
4072.265625	-46.165504
4073.242188	-47.355366
4074.218750	-46.459393
4075.195312	-45.028908
4076.171875	-44.097893
4077.148438	-44.676407
4078.125000	-46.505455
4079.101562	-45.153851
4080.078125	-45.004742
4081.054688	-44.920818
4082.031250	-46.426048
4083.007812	-44.062847
4083.984375	-45.787251
4084.960938	-43.803993
4085.937500	-44.991108
4086.914062	-45.080219
4087.890625	-44.730217
4088.867188	-44.911217
4089.843750	-44.808994
4090.820312	-43.998390
4091.796875	-43.911789
4092.773438	-44.922489
4093.750000	-45.441189
4094.726562	-45.306335
4095.703125	-45.968250
4096.679688	-46.495529
4097.656250	-45.229012
4098.632812	-45.046455
4099.609375	-43.857483
4100.585938	-42.929283
4101.562500	-43.717762
4102.539062	-43.429615
4103.515625	-45.178253
4104.492188	-44.516083
4105.468750	-44.431690
4106.445312	-44.821129
4107.421875	-43.006580
4108.398438	-44.330750
4109.375000	-44.579426
4110.351562	-44.981590
4111.328125	-43.867859
4112.304688	-42.002632
4113.281250	-43.693897
4114.257812	-45.854534
4115.234375	-45.033150
4116.210938	-43.645264
4117.187500	-43.404091
4118.164062	-44.814117
4119.140625	-44.902725
4120.117188	-44.968067
4121.093750	-44.092323
4122.070312	-43.793705
4123.046875	-42.995972
4124.023438	-43.870983
4125.000000	-43.581295
4125.976562	-44.391258
4126.953125	-44.547222
4127.929688	-43.803200
4128.906250	-42.733814
4129.882812	-42.426086
4130.859375	-42.704693
4131.835938	-42.743336
4132.812500	-40.932674
4133.789062	-40.928413
4134.765625	-41.868622
4135.742188	-43.525879
4136.718750	-43.280594
4137.695312	-41.741573
4138.671875	-42.722614
4139.648438	-44.057789
4140.625000	-43.919167
4141.601562	-42.621380
4142.578125	-42.639725
4143.554688	-42.082310
4144.531250	-42.953533
4145.507812	-44.132591
4146.484375	-42.945183
4147.460938	-42.583237
4148.437500	-42.177284
4149.414062	-42.036888
4150.390625	-43.316086
4151.367188	-42.323898
4152.343750	-43.435394
4153.320312	-43.788605
4154.296875	-43.325211
4155.273438	-42.200077
4156.250000	-42.477242
4157.226562	-42.389069
4158.203125	-42.402920
4159.179688	-42.394073
4160.156250	-40.579288
4161.132812	-42.482750
4162.109375	-43.527466
4163.085938	-43.286728
4164.062500	-44.391022
4165.039062	-44.206673
4166.015625	-43.372402
4166.992188	-44.164089
4167.968750	-44.097248
4168.945312	-43.154373
4169.921875	-43.209934
4170.898438	-43.096268
4171.875000	-44.047203
4172.851562	-44.509567
4173.828125	-45.550732
4174.804688	-45.042252
4175.781250	-44.353561
4176.757812	-44.301910
4177.734375	-42.619732
4178.710938	-42.494087
4179.687500	-41.433479
4180.664062	-42.959747
4181.640625	-42.771229
4182.617188	-43.434914
4183.593750	-42.964924
4184.570312	-42.015614
4185.546875	-42.191193
4186.523438	-43.356701
4187.500000	-45.219311
4188.476562	-43.132675
4189.453125	-44.021603
4190.429688	-44.812374
4191.406250	-44.563274
4192.382812	-44.915852
4193.359375	-44.310226
4194.335938	-43.993847
4195.312500	-43.769600
4196.289062	-43.612709
4197.265625	-43.084141
4198.242188	-45.114651
4199.218750	-44.407814
4200.195312	-45.020195
4201.171875	-43.108139
4202.148438	-44.344940
4203.125000	-43.824375
4204.101562	-44.676689
4205.078125	-44.401333
4206.054688	-44.596176
4207.031250	-44.585598
4208.007812	-46.347115
4208.984375	-45.139599
4209.960938	-45.724201
4210.937500	-44.325016
4211.914062	-44.268612
4212.890625	-46.600700
4213.867188	-46.693890
4214.843750	-45.293926
4215.820312	-45.581470
4216.796875	-45.736904
4217.773438	-46.392860
4218.750000	-47.169109
4219.726562	-46.478935
4220.703125	-45.858490
4221.679688	-45.461899
4222.656250	-46.767700
4223.632812	-45.841862
4224.609375	-44.964252
4225.585938	-44.466106
4226.562500	-46.728771
4227.539062	-45.437061
4228.515625	-46.838318
4229.492188	-46.621960
4230.468750	-47.331291
4231.445312	-46.609337
4232.421875	-46.383114
4233.398438	-47.470070
4234.375000	-47.173576
4235.351562	-47.897022
4236.328125	-46.711250
4237.304688	-47.347610
4238.281250	-47.107853
4239.257812	-46.694195
4240.234375	-48.595047
4241.210938	-47.619686
4242.187500	-47.031345
4243.164062	-47.151932
4244.140625	-46.733639
4245.117188	-47.541229
4246.093750	-46.953423
4247.070312	-48.154263
4248.046875	-47.548695
4249.023438	-48.713272
4250.000000	-47.903061
4250.976562	-49.046181
4251.953125	-49.895500
4252.929688	-48.738743
4253.906250	-49.704014
4254.882812	-49.030445
4255.859375	-48.866726
4256.835938	-48.970840
4257.812500	-48.145302
4258.789062	-49.211517
4259.765625	-48.838638
4260.742188	-49.429020
4261.718750	-50.465420
4262.695312	-50.686714
4263.671875	-49.636421
4264.648438	-49.644276
4265.625000	-48.965084
4266.601562	-50.779510
4267.578125	-49.816742
4268.554688	-48.575203
4269.531250	-50.697521
4270.507812	-50.337276
4271.484375	-50.227448
4272.460938	-50.996361
4273.437500	-51.477219
4274.414062	-51.090797
4275.390625	-50.780819
4276.367188	-51.067947
4277.343750	-51.326939
4278.320312	-50.567547
4279.296875	-50.313148
4280.273438	-49.154182
4281.250000	-50.812508
4282.226562	-51.876183
4283.203125	-52.322002
4284.179688	-52.156464
4285.156250	-52.461212
4286.132812	-52.183388
4287.109375	-51.692570
4288.085938	-51.727253
4289.062500	-50.411221
4290.039062	-49.960056
4291.015625	-52.759483
4291.992188	-50.765160
4292.968750	-52.266243
4293.945312	-51.418423
4294.921875	-52.468716
4295.898438	-52.238407
4296.875000	-52.735332
4297.851562	-53.057472
4298.828125	-52.273727
4299.804688	-51.239475
4300.781250	-51.960796
4301.757812	-51.763947
4302.734375	-51.869549
4303.710938	-52.236534
4304.687500	-52.720718
4305.664062	-53.514648
4306.640625	-51.929325
4307.617188	-51.745045
4308.593750	-52.095425
4309.570312	-53.612728
4310.546875	-51.999218
4311.523438	-52.221226
4312.500000	-52.949539
4313.476562	-53.057796
4314.453125	-52.802673
4315.429688	-53.117348
4316.406250	-53.817432
4317.382812	-52.350964
4318.359375	-52.681477
4319.335938	-53.832813
4320.312500	-52.548946
4321.289062	-52.762165
4322.265625	-54.765369
4323.242188	-52.752708
4324.218750	-52.524712
4325.195312	-52.457214
4326.171875	-53.078667
4327.148438	-54.174438
4328.125000	-54.380123
4329.101562	-52.607498
4330.078125	-53.202572
4331.054688	-53.164822
4332.031250	-52.669865
4333.007812	-53.072475
4333.984375	-53.865242
4334.960938	-54.305759
4335.937500	-53.337521
4336.914062	-53.927376
4337.890625	-55.131252
4338.867188	-54.063969
4339.843750	-54.018768
4340.820312	-52.206318
4341.796875	-53.184261
4342.773438	-54.148293
4343.750000	-54.060658
4344.726562	-54.297279
4345.703125	-53.278080
4346.679688	-54.282387
4347.656250	-54.162231
4348.632812	-53.332664
4349.609375	-55.647278
4350.585938	-54.275265
4351.562500	-53.890312
4352.539062	-54.854469
4353.515625	-55.519474
4354.492188	-54.558136
4355.468750	-52.984905
4356.445312	-53.410141
4357.421875	-53.662209
4358.398438	-54.466579
4359.375000	-55.226315
4360.351562	-55.264362
4361.328125	-54.470787
4362.304688	-54.571972
4363.281250	-55.000183
4364.257812	-55.696003
4365.234375	-55.743546
4366.210938	-55.318279
4367.187500	-54.806095
4368.164062	-54.689667
4369.140625	-54.865803
4370.117188	-53.069763
4371.093750	-54.508049
4372.070312	-54.762104
4373.046875	-55.544834
4374.023438	-54.803658
4375.000000	-55.910587
4375.976562	-55.547726
4376.953125	-54.402657
4377.929688	-55.059406
4378.906250	-54.879223
4379.882812	-54.725445
4380.859375	-54.792385
4381.835938	-54.455463
4382.812500	-55.055344
4383.789062	-54.293224
4384.765625	-55.167381
4385.742188	-54.817856
4386.718750	-55.802372
4387.695312	-56.572475
4388.671875	-55.618572
4389.648438	-56.017567
4390.625000	-54.602039
4391.601562	-54.740402
4392.578125	-56.000538
4393.554688	-55.481621
4394.531250	-54.071934
4395.507812	-55.409767
4396.484375	-55.178963
4397.460938	-55.206062
4398.437500	-55.087006
4399.414062	-56.124229
4400.390625	-54.851105
4401.367188	-55.454376
4402.343750	-55.504005
4403.320312	-55.484173
4404.296875	-55.211212
4405.273438	-54.233864
4406.250000	-55.258442
4407.226562	-54.552555
4408.203125	-55.147816
4409.179688	-54.528408
4410.156250	-53.837917
4411.132812	-54.987522
4412.109375	-54.460213
4413.085938	-55.268887
4414.062500	-56.590309
4415.039062	-57.616043
4416.015625	-55.583523
4416.992188	-54.134190
4417.968750	-55.425880
4418.945312	-55.005283
4419.921875	-56.094620
4420.898438	-55.550621
4421.875000	-55.144840
4422.851562	-55.673832
4423.828125	-54.134598
4424.804688	-55.415657
4425.781250	-56.103680
4426.757812	-54.844566
4427.734375	-55.076237
4428.710938	-54.911125
4429.687500	-54.463383
4430.664062	-54.827843
4431.640625	-56.199299
4432.617188	-55.128365
4433.593750	-54.384354
4434.570312	-56.580723
4435.546875	-55.913040
4436.523438	-54.881454
4437.500000	-55.541000
4438.476562	-55.241772
4439.453125	-53.986156
4440.429688	-53.928127
4441.406250	-55.601749
4442.382812	-54.807045
4443.359375	-55.273479
4444.335938	-55.366032
4445.312500	-55.040859
4446.289062	-54.729965
4447.265625	-55.605286
4448.242188	-55.175549
4449.218750	-56.145580
4450.195312	-54.653828
4451.171875	-55.612682
4452.148438	-54.880714
4453.125000	-54.043083
4454.101562	-53.821178
4455.078125	-54.212029
4456.054688	-53.313042
4457.031250	-54.891113
4458.007812	-54.221405
4458.984375	-55.097572
4459.960938	-55.238552
4460.937500	-54.621201
4461.914062	-53.433075
4462.890625	-55.661995
4463.867188	-54.558411
4464.843750	-55.247044
4465.820312	-54.687534
4466.796875	-56.061626
4467.773438	-56.435204
4468.750000	-56.397823
4469.726562	-55.866451
4470.703125	-54.757385
4471.679688	-54.490803
4472.656250	-54.377590
4473.632812	-54.073578
4474.609375	-55.338539
4475.585938	-54.688564
4476.562500	-56.240414
4477.539062	-55.386097
4478.515625	-54.035694
4479.492188	-54.748116
4480.468750	-54.985027
4481.445312	-53.847092
4482.421875	-53.881439
4483.398438	-54.349236
4484.375000	-53.890034
4485.351562	-53.792122
4486.328125	-54.028507
4487.304688	-54.455563
4488.281250	-53.423649
4489.257812	-54.278507
4490.234375	-53.187809
4491.210938	-53.805733
4492.187500	-54.260410
4493.164062	-54.109837
4494.140625	-53.345158
4495.117188	-54.062344
4496.093750	-52.653687
4497.070312	-53.001633
4498.046875	-52.770138
4499.023438	-52.973694
4500.000000	-53.332310
4500.976562	-54.904499
4501.953125	-54.028782
4502.929688	-52.350594
4503.906250	-53.751060
4504.882812	-54.276566
4505.859375	-54.428532
4506.835938	-53.792229
4507.812500	-52.470299
4508.789062	-53.250950
4509.765625	-54.279472
4510.742188	-51.951786
4511.718750	-54.449001
4512.695312	-51.961407
4513.671875	-51.717274
4514.648438	-50.959957
4515.625000	-52.193558
4516.601562	-53.100189
4517.578125	-53.767788
4518.554688	-53.558105
4519.531250	-51.472935
4520.507812	-51.591698
4521.484375	-54.282612
4522.460938	-53.125404
4523.437500	-54.250622
4524.414062	-52.632950
4525.390625	-52.949623
4526.367188	-53.673527
4527.343750	-54.300930
4528.320312	-52.868130
4529.296875	-52.721607
4530.273438	-53.867001
4531.250000	-50.778507
4532.226562	-51.780426
4533.203125	-54.229343
4534.179688	-51.688778
4535.156250	-51.928642
4536.132812	-51.569622
4537.109375	-51.979664
4538.085938	-51.870110
4539.062500	-53.206638
4540.039062	-52.311741
4541.015625	-51.428162
4541.992188	-52.711926
4542.968750	-51.786327
4543.945312	-51.817753
4544.921875	-51.257072
4545.898438	-51.863041
4546.875000	-50.201340
4547.851562	-51.405460
4548.828125	-49.841457
4549.804688	-49.910076
4550.781250	-50.077221
4551.757812	-50.883728
4552.734375	-51.776661
4553.710938	-51.934761
4554.687500	-51.265247
4555.664062	-49.893681
4556.640625	-52.125431
4557.617188	-50.875336
4558.593750	-50.959099
4559.570312	-50.905876
4560.546875	-50.588371
4561.523438	-48.806751
4562.500000	-50.526760
4563.476562	-49.692364
4564.453125	-51.876423
4565.429688	-50.569263
4566.406250	-50.044453
4567.382812	-50.405396
4568.359375	-50.799866
4569.335938	-50.353397
4570.312500	-50.703564
4571.289062	-51.864529
4572.265625	-50.557339
4573.242188	-48.816315
4574.218750	-50.290226
4575.195312	-49.199009
4576.171875	-49.003803
4577.148438	-50.455452
4578.125000	-48.673962
4579.101562	-48.681618
4580.078125	-49.062782
4581.054688	-48.224033
4582.031250	-47.977203
4583.007812	-47.741573
4583.984375	-49.264877
4584.960938	-49.625378
4585.937500	-50.977230
4586.914062	-50.924213
4587.890625	-49.428761
4588.867188	-49.570312
4589.843750	-48.872654
4590.820312	-48.264671
4591.796875	-50.107605
4592.773438	-51.003292
4593.750000	-49.558006
4594.726562	-49.255711
4595.703125	-47.432823
4596.679688	-48.139091
4597.656250	-48.073738
4598.632812	-47.648323
4599.609375	-47.534916
4600.585938	-48.528484
4601.562500	-47.465469
4602.539062	-47.000744
4603.515625	-46.374847
4604.492188	-48.960941
4605.468750	-48.408867
4606.445312	-45.852467
4607.421875	-46.822994
4608.398438	-47.230087
4609.375000	-47.423012
4610.351562	-46.605122
4611.328125	-48.759258
4612.304688	-47.976570
4613.281250	-47.762142
4614.257812	-48.016209
4615.234375	-46.864594
4616.210938	-47.706982
4617.187500	-46.807335
4618.164062	-47.928490
4619.140625	-48.138634
4620.117188	-48.005638
4621.093750	-48.199203
4622.070312	-47.505760
4623.046875	-46.888008
4624.023438	-46.036022
4625.000000	-48.437767
4625.976562	-47.001476
4626.953125	-46.162746
4627.929688	-47.768623
4628.906250	-47.735386
4629.882812	-44.556877
4630.859375	-46.247150
4631.835938	-45.313862
4632.812500	-46.215412
4633.789062	-46.131584
4634.765625	-46.805904
4635.742188	-46.472324
4636.718750	-47.596233
4637.695312	-48.386467
4638.671875	-47.015343
4639.648438	-46.791870
4640.625000	-47.337143
4641.601562	-46.042915
4642.578125	-47.578289
4643.554688	-47.359665
4644.531250	-47.224194
4645.507812	-47.250675
4646.484375	-46.663273
4647.460938	-44.886364
4648.437500	-45.797680
4649.414062	-46.907402
4650.390625	-46.082047
4651.367188	-45.730270
4652.343750	-46.420845
4653.320312	-45.357750
4654.296875	-47.207924
4655.273438	-46.861870
4656.250000	-46.552876
4657.226562	-45.668468
4658.203125	-46.196571
4659.179688	-45.337048
4660.156250	-45.289307
4661.132812	-46.608631
4662.109375	-46.227722
4663.085938	-45.748810
4664.062500	-46.497673
4665.039062	-45.222485
4666.015625	-44.285431
4666.992188	-45.442581
4667.968750	-46.603271
4668.945312	-46.920135
4669.921875	-46.618385
4670.898438	-46.071629
4671.875000	-45.772953
4672.851562	-45.534512
4673.828125	-47.440807
4674.804688	-46.871700
4675.781250	-46.194126
4676.757812	-46.156265
4677.734375	-46.023945
4678.710938	-46.222031
4679.687500	-46.405941
4680.664062	-46.359859
4681.640625	-45.817471
4682.617188	-45.839401
4683.593750	-45.844494
4684.570312	-45.748192
4685.546875	-45.784119
4686.523438	-45.857471
4687.500000	-44.619602
4688.476562	-46.054371
4689.453125	-44.709766
4690.429688	-45.854633
4691.406250	-45.164959
4692.382812	-45.297512
4693.359375	-47.917774
4694.335938	-46.398659
4695.312500	-46.234585
4696.289062	-45.904335
4697.265625	-47.093102
4698.242188	-46.968071
4699.218750	-47.412212
4700.195312	-46.362148
4701.171875	-45.578926
4702.148438	-46.858212
4703.125000	-45.820000
4704.101562	-48.189606
4705.078125	-47.636101
4706.054688	-47.758556
4707.031250	-47.601284
4708.007812	-46.498371
4708.984375	-47.805153
4709.960938	-46.165890
4710.937500	-45.060734
4711.914062	-45.657444
4712.890625	-46.081600
4713.867188	-45.614960
4714.843750	-46.889679
4715.820312	-47.697605
4716.796875	-47.341782
4717.773438	-47.709465
4718.750000	-47.726852
4719.726562	-49.751400
4720.703125	-47.232330
4721.679688	-47.239037
4722.656250	-48.594185
4723.632812	-47.407845
4724.609375	-47.004417
4725.585938	-48.591366
4726.562500	-47.818493
4727.539062	-46.837429
4728.515625	-49.962566
4729.492188	-49.594379
4730.468750	-50.586250
4731.445312	-49.836105
4732.421875	-49.462872
4733.398438	-49.103951
4734.375000	-47.399971
4735.351562	-46.379833
4736.328125	-46.820869
4737.304688	-48.411819
4738.281250	-48.439529
4739.257812	-51.097191
4740.234375	-49.393593
4741.210938	-47.643105
4742.187500	-49.189266
4743.164062	-49.594742
4744.140625	-48.534767
4745.117188	-50.237434
4746.093750	-50.227379
4747.070312	-50.002121
4748.046875	-49.654610
4749.023438	-50.782745
4750.000000	-50.908024
4750.976562	-50.408348
4751.953125	-50.483589
4752.929688	-51.234184
4753.906250	-51.200249
4754.882812	-51.384743
4755.859375	-50.156261
4756.835938	-49.665722
4757.812500	-49.466934
4758.789062	-49.140167
4759.765625	-50.202915
4760.742188	-50.650272
4761.718750	-52.617661
4762.695312	-50.512062
4763.671875	-51.690754
4764.648438	-51.466900
4765.625000	-51.247192
4766.601562	-49.574337
4767.578125	-50.912151
4768.554688	-50.576832
4769.531250	-53.712250
4770.507812	-53.613518
4771.484375	-52.437325
4772.460938	-51.899483
4773.437500	-51.774651
4774.414062	-50.292496
4775.390625	-51.212605
4776.367188	-51.932396
4777.343750	-52.458736
4778.320312	-52.083439
4779.296875	-51.533051
4780.273438	-51.395996
4781.250000	-52.024567
4782.226562	-51.779282
4783.203125	-51.574036
4784.179688	-50.992321
4785.156250	-52.110661
4786.132812	-53.536903
4787.109375	-51.763084
4788.085938	-52.454567
4789.062500	-52.603775
4790.039062	-53.279095
4791.015625	-51.847580
4791.992188	-50.983200
4792.968750	-53.286274
4793.945312	-54.884674
4794.921875	-53.879627
4795.898438	-53.673504
4796.875000	-52.349136
4797.851562	-52.392952
4798.828125	-51.698296
4799.804688	-52.922894
4800.781250	-53.386559
4801.757812	-52.997231
4802.734375	-53.822769
4803.710938	-53.599213
4804.687500	-55.574917
4805.664062	-53.543442
4806.640625	-53.585449
4807.617188	-52.518856
4808.593750	-54.215343
4809.570312	-53.785439
4810.546875	-53.806683
4811.523438	-54.061516
4812.500000	-54.469299
4813.476562	-53.696316
4814.453125	-53.501263
4815.429688	-55.189491
4816.406250	-54.057602
4817.382812	-52.788914
4818.359375	-54.207165
4819.335938	-55.200268
4820.312500	-54.111561
4821.289062	-53.980095
4822.265625	-55.588402
4823.242188	-53.963512
4824.218750	-55.182835
4825.195312	-56.575100
4826.171875	-53.667892
4827.148438	-53.688610
4828.125000	-54.875893
4829.101562	-55.173862
4830.078125	-54.722095
4831.054688	-54.277012
4832.031250	-55.029007
4833.007812	-55.009476
4833.984375	-54.314789
4834.960938	-54.855663
4835.937500	-55.584190
4836.914062	-54.819118
4837.890625	-55.873020
4838.867188	-55.300205
4839.843750	-54.656235
4840.820312	-55.574326
4841.796875	-55.683208
4842.773438	-55.811306
4843.750000	-54.547138
4844.726562	-56.071457
4845.703125	-56.328457
4846.679688	-55.585018
4847.656250	-55.626427
4848.632812	-56.405258
4849.609375	-55.625065
4850.585938	-54.928165
4851.562500	-55.657986
4852.539062	-55.939831
4853.515625	-56.024570
4854.492188	-55.406372
4855.468750	-54.979347
4856.445312	-55.422813
4857.421875	-54.246681
4858.398438	-54.469120
4859.375000	-55.395233
4860.351562	-57.445763
4861.328125	-55.627979
4862.304688	-55.353668
4863.281250	-55.647896
4864.257812	-55.354305
4865.234375	-56.122120
4866.210938	-56.675903
4867.187500	-55.732998
4868.164062	-55.874641
4869.140625	-56.544544
4870.117188	-56.410641
4871.093750	-55.165646
4872.070312	-56.267185
4873.046875	-56.208820
4874.023438	-55.043060
4875.000000	-56.089874
4875.976562	-55.973156
4876.953125	-54.961010
4877.929688	-56.789410
4878.906250	-56.750011
4879.882812	-55.515633
4880.859375	-55.311153
4881.835938	-55.875286
4882.812500	-55.817638
4883.789062	-55.690395
4884.765625	-54.890499
4885.742188	-55.674599
4886.718750	-56.839748
4887.695312	-56.376629
4888.671875	-54.590149
4889.648438	-55.344471
4890.625000	-56.940453
4891.601562	-57.979923
4892.578125	-56.823631
4893.554688	-55.846863
4894.531250	-56.038654
4895.507812	-56.745388
4896.484375	-55.435112
4897.460938	-56.933331
4898.437500	-56.887428
4899.414062	-55.381130
4900.390625	-55.852570
4901.367188	-56.288643
4902.343750	-57.096519
4903.320312	-55.719196
4904.296875	-57.375813
4905.273438	-56.088093
4906.250000	-55.899128
4907.226562	-55.895023
4908.203125	-55.991199
4909.179688	-55.431122
4910.156250	-55.682755
4911.132812	-55.825260
4912.109375	-55.408649
4913.085938	-55.161339
4914.062500	-55.636055
4915.039062	-56.970074
4916.015625	-56.304642
4916.992188	-56.137642
4917.968750	-55.530193
4918.945312	-54.773575
4919.921875	-56.091858
4920.898438	-57.822464
4921.875000	-56.935360
4922.851562	-57.088593
4923.828125	-57.719711
4924.804688	-56.627907
4925.781250	-57.406075
4926.757812	-56.943600
4927.734375	-55.999474
4928.710938	-57.452106
4929.687500	-56.123898
4930.664062	-55.526218
4931.640625	-56.485714
4932.617188	-54.840214
4933.593750	-55.946606
4934.570312	-55.767307
4935.546875	-55.835060
4936.523438	-57.016308
4937.500000	-55.633347
4938.476562	-55.772392
4939.453125	-56.496723
4940.429688	-55.912636
4941.406250	-55.163261
4942.382812	-56.770546
4943.359375	-54.861214
4944.335938	-55.701000
4945.312500	-56.371632
4946.289062	-57.229374
4947.265625	-56.447468
4948.242188	-57.284855
4949.218750	-56.036034
4950.195312	-56.537342
4951.171875	-55.333046
4952.148438	-55.712593
4953.125000	-54.976135
4954.101562	-54.831566
4955.078125	-54.424229
4956.054688	-54.428856
4957.031250	-55.548405
4958.007812	-55.103123
4958.984375	-54.637905
4959.960938	-54.936821
4960.937500	-54.490200
4961.914062	-54.421036
4962.890625	-55.617199
4963.867188	-56.743759
4964.843750	-57.232155
4965.820312	-55.055893
4966.796875	-56.641144
4967.773438	-55.089607
4968.750000	-55.255486
4969.726562	-55.469921
4970.703125	-55.648476
4971.679688	-55.252098
4972.656250	-54.684719
4973.632812	-54.870754
4974.609375	-56.283401
4975.585938	-55.663059
4976.562500	-54.551193
4977.539062	-55.957706
4978.515625	-55.449383
4979.492188	-54.030838
4980.468750	-53.522755
4981.445312	-54.145111
4982.421875	-55.500332
4983.398438	-54.024761
4984.375000	-55.360939
4985.351562	-55.112041
4986.328125	-54.802040
4987.304688	-54.589054
4988.281250	-54.829651
4989.257812	-54.452953
4990.234375	-55.657322
4991.210938	-55.077587
4992.187500	-53.742043
4993.164062	-54.535168
4994.140625	-53.328457
4995.117188	-55.446922
4996.093750	-57.389542
4997.070312	-54.926453
4998.046875	-55.579830
4999.023438	-55.359669
5000.000000	-55.551964
5000.976562	-52.958298
5001.953125	-52.954411
5002.929688	-54.472233
5003.906250	-53.780304
5004.882812	-53.187057
5005.859375	-53.458618
5006.835938	-53.926121
5007.812500	-54.237244
5008.789062	-54.375759
5009.765625	-54.465839
5010.742188	-53.099827
5011.718750	-54.264767
5012.695312	-54.085423
5013.671875	-53.846600
5014.648438	-54.162132
5015.625000	-55.268322
5016.601562	-54.414650
5017.578125	-54.675388
5018.554688	-54.001652
5019.531250	-53.336769
5020.507812	-53.788536
5021.484375	-53.731472
5022.460938	-54.004906
5023.437500	-53.907757
5024.414062	-51.937557
5025.390625	-53.322235
5026.367188	-52.602348
5027.343750	-53.001045
5028.320312	-52.946484
5029.296875	-52.372681
5030.273438	-53.500458
5031.250000	-53.863789
5032.226562	-52.533764
5033.203125	-51.768986
5034.179688	-51.637299
5035.156250	-52.710880
5036.132812	-52.997166
5037.109375	-54.090267
5038.085938	-52.350113
5039.062500	-53.172737
5040.039062	-53.169861
5041.015625	-53.930267
5041.992188	-53.648827
5042.968750	-54.613140
5043.945312	-54.193821
5044.921875	-54.261456
5045.898438	-51.989349
5046.875000	-52.229065
5047.851562	-53.350971
5048.828125	-52.955578
5049.804688	-51.098267
5050.781250	-51.721645
5051.757812	-51.609531
5052.734375	-52.617363
5053.710938	-52.557785
5054.687500	-51.142563
5055.664062	-49.545059
5056.640625	-50.881969
5057.617188	-51.987431
5058.593750	-50.620930
5059.570312	-50.295570
5060.546875	-51.969261
5061.523438	-51.101471
5062.500000	-50.007908
5063.476562	-50.401459
5064.453125	-51.215889
5065.429688	-51.201805
5066.406250	-51.196587
5067.382812	-50.776886
5068.359375	-51.290722
5069.335938	-50.752068
5070.312500	-51.135117
5071.289062	-50.427853
5072.265625	-52.507343
5073.242188	-53.028046
5074.218750	-50.541008
5075.195312	-49.748970
5076.171875	-50.558395
5077.148438	-49.726978
5078.125000	-50.822826
5079.101562	-49.951263
5080.078125	-49.547523
5081.054688	-50.504318
5082.031250	-52.019318
5083.007812	-51.051334
5083.984375	-49.834179
5084.960938	-50.477856
5085.937500	-49.176598
5086.914062	-49.396828
5087.890625	-49.424969
5088.867188	-48.762375
5089.843750	-48.961689
5090.820312	-50.560154
5091.796875	-49.948246
5092.773438	-49.014900
5093.750000	-50.923634
5094.726562	-49.909893
5095.703125	-50.301876
5096.679688	-48.461338
5097.656250	-48.099392
5098.632812	-48.774727
5099.609375	-47.185028
5100.585938	-47.193432
5101.562500	-48.979130
5102.539062	-50.443066
5103.515625	-47.776596
5104.492188	-48.857861
5105.468750	-49.174061
5106.445312	-47.283104
5107.421875	-49.169582
5108.398438	-49.551872
5109.375000	-48.226826
5110.351562	-47.762676
5111.328125	-48.755997
5112.304688	-48.597153
5113.281250	-49.558487
5114.257812	-48.647469
5115.234375	-48.700886
5116.210938	-48.312466
5117.187500	-48.083160
5118.164062	-49.053562
5119.140625	-49.024960
5120.117188	-47.963886
5121.093750	-47.909256
5122.070312	-46.736919
5123.046875	-48.550354
5124.023438	-47.998554
5125.000000	-46.205276
5125.976562	-46.630310
5126.953125	-47.849224
5127.929688	-48.861156
5128.906250	-48.464367
5129.882812	-46.929081
5130.859375	-48.223133
5131.835938	-47.318913
5132.812500	-46.609550
5133.789062	-48.006668
5134.765625	-49.171970
5135.742188	-48.750931
5136.718750	-48.871758
5137.695312	-48.584290
5138.671875	-48.191586
5139.648438	-48.009235
5140.625000	-48.406055
5141.601562	-47.936188
5142.578125	-47.702888
5143.554688	-48.369049
5144.531250	-49.349697
5145.507812	-47.114365
5146.484375	-47.690998
5147.460938	-48.171299
5148.437500	-47.060730
5149.414062	-47.308910
5150.390625	-46.783669
5151.367188	-46.519741
5152.343750	-46.084435
5153.320312	-46.313965
5154.296875	-47.181774
5155.273438	-46.760227
5156.250000	-47.496754
5157.226562	-48.559654
5158.203125	-48.049103
5159.179688	-47.313374
5160.156250	-47.520851
5161.132812	-47.191208
5162.109375	-46.356476
5163.085938	-46.916981
5164.062500	-47.535053
5165.039062	-47.345024
5166.015625	-46.849880
5166.992188	-46.826469
5167.968750	-46.815468
5168.945312	-48.815834
5169.921875	-47.507637
5170.898438	-47.408028
5171.875000	-47.153038
5172.851562	-46.998600
5173.828125	-46.951351
5174.804688	-47.557987
5175.781250	-46.871716
5176.757812	-47.524746
5177.734375	-45.101112
5178.710938	-47.738743
5179.687500	-46.775101
5180.664062	-46.445099
5181.640625	-47.209656
5182.617188	-47.183674
5183.593750	-46.092682
5184.570312	-46.433365
5185.546875	-46.494637
5186.523438	-45.316730
5187.500000	-45.873943
5188.476562	-46.263054
5189.453125	-47.153625
5190.429688	-47.132824
5191.406250	-45.943909
5192.382812	-46.530838
5193.359375	-48.396774
5194.335938	-47.568657
5195.312500	-47.917778
5196.289062	-46.138798
5197.265625	-47.324020
5198.242188	-47.987011
5199.218750	-46.951969
5200.195312	-48.341846
5201.171875	-48.270348
5202.148438	-46.720558
5203.125000	-48.498192
5204.101562	-47.990700
5205.078125	-46.774593
5206.054688	-47.639923
5207.031250	-46.009083
5208.007812	-46.384995
5208.984375	-48.785202
5209.960938	-46.487617
5210.937500	-47.869968
5211.914062	-48.702911
5212.890625	-48.282890
5213.867188	-48.108196
5214.843750	-47.421974
5215.820312	-48.866707
5216.796875	-47.784843
5217.773438	-46.907227
5218.750000	-46.861275
5219.726562	-46.853550
5220.703125	-47.430561
5221.679688	-48.711941
5222.656250	-47.312908
5223.632812	-48.021957
5224.609375	-48.059994
5225.585938	-49.880238
5226.562500	-51.304379
5227.539062	-50.438446
5228.515625	-50.155819
5229.492188	-48.506142
5230.468750	-49.944984
5231.445312	-50.188839
5232.421875	-48.844971
5233.398438	-49.254265
5234.375000	-50.299316
5235.351562	-48.977413
5236.328125	-49.980183
5237.304688	-48.117176
5238.281250	-50.413097
5239.257812	-49.654953
5240.234375	-49.198994
5241.210938	-49.995403
5242.187500	-49.610348
5243.164062	-49.335411
5244.140625	-49.386330
5245.117188	-50.355225
5246.093750	-50.204021
5247.070312	-48.499386
5248.046875	-48.965603
5249.023438	-50.043472
5250.000000	-50.131821
5250.976562	-50.149670
5251.953125	-50.977150
5252.929688	-49.576641
5253.906250	-49.866562
5254.882812	-50.266182
5255.859375	-50.212074
5256.835938	-50.411434
5257.812500	-51.226532
5258.789062	-51.521687
5259.765625	-51.005093
5260.742188	-50.709808
5261.718750	-50.800415
5262.695312	-49.942936
5263.671875	-51.141479
5264.648438	-50.556538
5265.625000	-51.023190
5266.601562	-51.852753
5267.578125	-53.075718
5268.554688	-50.685688
5269.531250	-52.262745
5270.507812	-51.910545
5271.484375	-51.234207
5272.460938	-52.561069
5273.437500	-51.355148
5274.414062	-51.943317
5275.390625	-52.602413
5276.367188	-53.081692
5277.343750	-52.696442
5278.320312	-52.640995
5279.296875	-51.257881
5280.273438	-52.119507
5281.250000	-53.739735
5282.226562	-52.635578
5283.203125	-52.499306
5284.179688	-51.911667
5285.156250	-50.066051
5286.132812	-51.698444
5287.109375	-51.998337
5288.085938	-51.342957
5289.062500	-52.634777
5290.039062	-52.899574
5291.015625	-51.513042
5291.992188	-53.148335
5292.968750	-53.322598
5293.945312	-52.645409
5294.921875	-53.645538
5295.898438	-54.026455
5296.875000	-53.762997
5297.851562	-53.519203
5298.828125	-54.318737
5299.804688	-53.269775
5300.781250	-54.499237
5301.757812	-53.014103
5302.734375	-54.101097
5303.710938	-53.570072
5304.687500	-53.035236
5305.664062	-53.450672
5306.640625	-53.197567
5307.617188	-53.170948
5308.593750	-53.306606
5309.570312	-53.793556
5310.546875	-53.038895
5311.523438	-54.607624
5312.500000	-51.915485
5313.476562	-51.659336
5314.453125	-53.248814
5315.429688	-53.571617
5316.406250	-54.053234
5317.382812	-54.661198
5318.359375	-52.657383
5319.335938	-53.407467
5320.312500	-54.285725
5321.289062	-54.873447
5322.265625	-54.501537
5323.242188	-54.505798
5324.218750	-55.506447
5325.195312	-54.527496
5326.171875	-53.949371
5327.148438	-53.010204
5328.125000	-53.827164
5329.101562	-53.984627
5330.078125	-54.192158
5331.054688	-55.507942
5332.031250	-54.047943
5333.007812	-55.488338
5333.984375	-53.555027
5334.960938	-54.491074
5335.937500	-52.972904
5336.914062	-54.252010
5337.890625	-53.962345
5338.867188	-54.615005
5339.843750	-55.399681
5340.820312	-53.554436
5341.796875	-52.955807
5342.773438	-53.548840
5343.750000	-54.362625
5344.726562	-55.095943
5345.703125	-56.122459
5346.679688	-56.480724
5347.656250	-56.118767
5348.632812	-54.753551
5349.609375	-56.884186
5350.585938	-54.841656
5351.562500	-53.191483
5352.539062	-54.246613
5353.515625	-54.241920
5354.492188	-54.228313
5355.468750	-55.412510
5356.445312	-54.946175
5357.421875	-55.406834
5358.398438	-55.495022
5359.375000	-54.928688
5360.351562	-55.053917
5361.328125	-54.082672
5362.304688	-54.822281
5363.281250	-53.899124
5364.257812	-55.562668
5365.234375	-55.684299
5366.210938	-53.336311
5367.187500	-54.533836
5368.164062	-56.636635
5369.140625	-55.555496
5370.117188	-55.547096
5371.093750	-55.725784
5372.070312	-56.528927
5373.046875	-56.838657
5374.023438	-55.258408
5375.000000	-56.273766
5375.976562	-54.479893
5376.953125	-54.492214
5377.929688	-54.956196
5378.906250	-57.296291
5379.882812	-55.198864
5380.859375	-55.224701
5381.835938	-54.344303
5382.812500	-54.525875
5383.789062	-54.562283
5384.765625	-55.449329
5385.742188	-53.964340
5386.718750	-54.877102
5387.695312	-53.547626
5388.671875	-53.217625
5389.648438	-54.871967
5390.625000	-55.714031
5391.601562	-55.044392
5392.578125	-54.810329
5393.554688	-55.640297
5394.531250	-54.856209
5395.507812	-54.113297
5396.484375	-54.421520
5397.460938	-56.090786
5398.437500	-56.307755
5399.414062	-55.433426
5400.390625	-54.644100
5401.367188	-55.158848
5402.343750	-54.639984
5403.320312	-55.592323
5404.296875	-55.120319
5405.273438	-56.125412
5406.250000	-56.255985
5407.226562	-55.477806
5408.203125	-55.107105
5409.179688	-55.079838
5410.156250	-56.008007
5411.132812	-53.126713
5412.109375	-53.583076
5413.085938	-54.431931
5414.062500	-54.187538
5415.039062	-54.155811
5416.015625	-55.425037
5416.992188	-54.399334
5417.968750	-54.303017
5418.945312	-53.616203
5419.921875	-54.531193
5420.898438	-55.717297
5421.875000	-53.593021
5422.851562	-54.474960
5423.828125	-54.183521
5424.804688	-55.956894
5425.781250	-55.358807
5426.757812	-55.145992
5427.734375	-54.652180
5428.710938	-54.898815
5429.687500	-54.763866
5430.664062	-54.402626
5431.640625	-54.663391
5432.617188	-54.898354
5433.593750	-56.431511
5434.570312	-55.537918
5435.546875	-55.195175
5436.523438	-54.697422
5437.500000	-53.428219
5438.476562	-53.599087
5439.453125	-55.217621
5440.429688	-54.121334
5441.406250	-54.305466
5442.382812	-56.670208
5443.359375	-54.068657
5444.335938	-55.001659
5445.312500	-54.764687
5446.289062	-53.722965
5447.265625	-55.583080
5448.242188	-53.482925
5449.218750	-54.214073
5450.195312	-55.436466
5451.171875	-54.374454
5452.148438	-54.873955
5453.125000	-53.951218
5454.101562	-54.708759
5455.078125	-54.441597
5456.054688	-54.931732
5457.031250	-55.952408
5458.007812	-54.704056
5458.984375	-54.112530
5459.960938	-52.795906
5460.937500	-55.164062
5461.914062	-53.249325
5462.890625	-54.349083
5463.867188	-55.947250
5464.843750	-53.894802
5465.820312	-54.579533
5466.796875	-55.545437
5467.773438	-54.924561
5468.750000	-54.666100
5469.726562	-54.557404
5470.703125	-55.831856
5471.679688	-55.324848
5472.656250	-55.688080
5473.632812	-54.837105
5474.609375	-53.530716
5475.585938	-54.942257
5476.562500	-52.994835
5477.539062	-53.617065
5478.515625	-55.782608
5479.492188	-53.946541
5480.468750	-53.735970
5481.445312	-53.413231
5482.421875	-53.339104
5483.398438	-53.131420
5484.375000	-55.300713
5485.351562	-55.305813
5486.328125	-53.469242
5487.304688	-55.461105
5488.281250	-55.009899
5489.257812	-54.476608
5490.234375	-55.617008
5491.210938	-54.272591
5492.187500	-53.394222
5493.164062	-53.099255
5494.140625	-53.057415
5495.117188	-54.396976
5496.093750	-55.021751
5497.070312	-53.914299
5498.046875	-52.272900
5499.023438	-53.729836
5500.000000	-53.409805
5500.976562	-51.965015
5501.953125	-50.753033
5502.929688	-52.119255
5503.906250	-51.501213
5504.882812	-52.098263
5505.859375	-53.130238
5506.835938	-51.970840
5507.812500	-53.328491
5508.789062	-54.525017
5509.765625	-52.785591
5510.742188	-53.165237
5511.718750	-53.788734
5512.695312	-53.087299
5513.671875	-52.558712
5514.648438	-52.090580
5515.625000	-52.150841
5516.601562	-53.309753
5517.578125	-51.459797
5518.554688	-53.003361
5519.531250	-51.220856
5520.507812	-49.960964
5521.484375	-50.973835
5522.460938	-53.093369
5523.437500	-52.390133
5524.414062	-53.287815
5525.390625	-51.577789
5526.367188	-51.046738
5527.343750	-52.323036
5528.320312	-51.906963
5529.296875	-52.563194
5530.273438	-51.570187
5531.250000	-53.233086
5532.226562	-49.936615
5533.203125	-52.794090
5534.179688	-52.055897
5535.156250	-50.771141
5536.132812	-52.794613
5537.109375	-51.370045
5538.085938	-51.808426
5539.062500	-51.742546
5540.039062	-52.828770
5541.015625	-50.816090
5541.992188	-51.820137
5542.968750	-52.196907
5543.945312	-49.861370
5544.921875	-48.727795
5545.898438	-51.225109
5546.875000	-51.324867
5547.851562	-49.839775
5548.828125	-48.988129
5549.804688	-50.260212
5550.781250	-50.925209
5551.757812	-50.532768
5552.734375	-51.890331
5553.710938	-51.164677
5554.687500	-50.144424
5555.664062	-50.920055
5556.640625	-52.504745
5557.617188	-50.724876
5558.593750	-50.724659
5559.570312	-48.804966
5560.546875	-49.685551
5561.523438	-50.512798
5562.500000	-49.945721
5563.476562	-49.446735
5564.453125	-50.847809
5565.429688	-49.283875
5566.406250	-49.809727
5567.382812	-50.193394
5568.359375	-50.276085
5569.335938	-50.547428
5570.312500	-49.634827
5571.289062	-48.446880
5572.265625	-49.659992
5573.242188	-49.292053
5574.218750	-49.780903
5575.195312	-49.168198
5576.171875	-49.655659
5577.148438	-49.817837
5578.125000	-49.236389
5579.101562	-49.307518
5580.078125	-48.593273
5581.054688	-48.002754
5582.031250	-47.594284
5583.007812	-47.852398
5583.984375	-47.420547
5584.960938	-46.967812
5585.937500	-48.186623
5586.914062	-48.379318
5587.890625	-48.613094
5588.867188	-48.870724
5589.843750	-48.846836
5590.820312	-48.607750
5591.796875	-49.300049
5592.773438	-49.461006
5593.750000	-48.387104
5594.726562	-49.732452
5595.703125	-46.880280
5596.679688	-48.754215
5597.656250	-49.115505
5598.632812	-47.493614
5599.609375	-48.101192
5600.585938	-46.264977
5601.562500	-48.775787
5602.539062	-49.476311
5603.515625	-50.019749
5604.492188	-49.029591
5605.468750	-48.700359
5606.445312	-46.873863
5607.421875	-46.772736
5608.398438	-48.160343
5609.375000	-48.542213
5610.351562	-50.123524
5611.328125	-48.310333
5612.304688	-48.980877
5613.281250	-49.239395
5614.257812	-46.941738
5615.234375	-46.286770
5616.210938	-48.258034
5617.187500	-48.285782
5618.164062	-48.006527
5619.140625	-46.714649
5620.117188	-47.508724
5621.093750	-47.643463
5622.070312	-46.046074
5623.046875	-48.169136
5624.023438	-49.347649
5625.000000	-47.236027
5625.976562	-48.464748
5626.953125	-48.565113
5627.929688	-46.883064
5628.906250	-48.827778
5629.882812	-48.158676
5630.859375	-48.020447
5631.835938	-46.897495
5632.812500	-49.046844
5633.789062	-48.377678
5634.765625	-46.322876
5635.742188	-47.367489
5636.718750	-45.761719
5637.695312	-46.631489
5638.671875	-47.085224
5639.648438	-48.734478
5640.625000	-47.682930
5641.601562	-46.131771
5642.578125	-45.707764
5643.554688	-46.951653
5644.531250	-48.550694
5645.507812	-46.534367
5646.484375	-47.751522
5647.460938	-48.182678
5648.437500	-46.848450
5649.414062	-47.103519
5650.390625	-46.688015
5651.367188	-47.519356
5652.343750	-46.653748
5653.320312	-46.084370
5654.296875	-46.379650
5655.273438	-47.130074
5656.250000	-46.051807
5657.226562	-44.345448
5658.203125	-46.430988
5659.179688	-44.936783
5660.156250	-46.431637
5661.132812	-45.855946
5662.109375	-46.881798
5663.085938	-46.747650
5664.062500	-46.229351
5665.039062	-45.515778
5666.015625	-46.043526
5666.992188	-45.230614
5667.968750	-45.465881
5668.945312	-47.361202
5669.921875	-45.219147
5670.898438	-45.482738
5671.875000	-47.757183
5672.851562	-45.581959
5673.828125	-46.906620
5674.804688	-45.978657
5675.781250	-46.699867
5676.757812	-46.978760
5677.734375	-44.729729
5678.710938	-44.521793
5679.687500	-45.703072
5680.664062	-44.841831
5681.640625	-45.396030
5682.617188	-46.606857
5683.593750	-45.882542
5684.570312	-46.216682
5685.546875	-45.309048
5686.523438	-44.940510
5687.500000	-43.903252
5688.476562	-44.501411
5689.453125	-45.460533
5690.429688	-45.148312
5691.406250	-45.709473
5692.382812	-44.503082
5693.359375	-44.568405
5694.335938	-45.056744
5695.312500	-45.558258
5696.289062	-45.794979
5697.265625	-46.895576
5698.242188	-45.559807
5699.218750	-47.038231
5700.195312	-45.997681
5701.171875	-46.100639
5702.148438	-45.432625
5703.125000	-46.215000
5704.101562	-47.195145
5705.078125	-46.229988
5706.054688	-46.234684
5707.031250	-46.921703
5708.007812	-45.981152
5708.984375	-46.480545
5709.960938	-46.667107
5710.937500	-46.030132
5711.914062	-45.333622
5712.890625	-46.382595
5713.867188	-46.306595
5714.843750	-47.829266
5715.820312	-47.562710
5716.796875	-47.121284
5717.773438	-46.771496
5718.750000	-46.106228
5719.726562	-45.425011
5720.703125	-44.021767
5721.679688	-44.292988
5722.656250	-46.964546
5723.632812	-47.861111
5724.609375	-47.672077
5725.585938	-49.370861
5726.562500	-47.376183
5727.539062	-47.923519
5728.515625	-45.927357
5729.492188	-46.369251
5730.468750	-47.469486
5731.445312	-46.296993
5732.421875	-45.998005
5733.398438	-47.104061
5734.375000	-48.064774
5735.351562	-47.337173
5736.328125	-47.634647
5737.304688	-48.275471
5738.281250	-48.437408
5739.257812	-47.210217
5740.234375	-47.983646
5741.210938	-48.606869
5742.187500	-47.696274
5743.164062	-48.300251
5744.140625	-48.382500
5745.117188	-47.845352
5746.093750	-48.261196
5747.070312	-47.385185
5748.046875	-48.333641
5749.023438	-46.472721
5750.000000	-46.284588
5750.976562	-47.508717
5751.953125	-47.005390
5752.929688	-49.260075
5753.906250	-48.475700
5754.882812	-48.358944
5755.859375	-48.338501
5756.835938	-48.090694
5757.812500	-48.839355
5758.789062	-50.705334
5759.765625	-50.492413
5760.742188	-48.753994
5761.718750	-48.950947
5762.695312	-48.932472
5763.671875	-49.086914
5764.648438	-48.480724
5765.625000	-48.334133
5766.601562	-49.904163
5767.578125	-49.688896
5768.554688	-49.161636
5769.531250	-49.175243
5770.507812	-50.144089
5771.484375	-48.986938
5772.460938	-50.091030
5773.437500	-47.899380
5774.414062	-48.687138
5775.390625	-49.317936
5776.367188	-50.355900
5777.343750	-48.468987
5778.320312	-49.294464
5779.296875	-49.525051
5780.273438	-50.243954
5781.250000	-51.009094
5782.226562	-52.491722
5783.203125	-51.051109
5784.179688	-50.651810
5785.156250	-52.704384
5786.132812	-51.204960
5787.109375	-52.189335
5788.085938	-50.675091
5789.062500	-50.315628
5790.039062	-49.194050
5791.015625	-50.326019
5791.992188	-49.485245
5792.968750	-50.421276
5793.945312	-51.790127
5794.921875	-50.596699
5795.898438	-50.826996
5796.875000	-51.034576
5797.851562	-50.875626
5798.828125	-51.502079
5799.804688	-51.008854
5800.781250	-50.651814
5801.757812	-52.353580
5802.734375	-50.777946
5803.710938	-51.000778
5804.687500	-50.074108
5805.664062	-51.868290
5806.640625	-51.318577
5807.617188	-50.414734
5808.593750	-50.461891
5809.570312	-52.777439
5810.546875	-51.693901
5811.523438	-51.779602
5812.500000	-52.568272
5813.476562	-51.874535
5814.453125	-52.463886
5815.429688	-53.125580
5816.406250	-51.834766
5817.382812	-51.358208
5818.359375	-52.963997
5819.335938	-52.805973
5820.312500	-53.425713
5821.289062	-52.595684
5822.265625	-52.805847
5823.242188	-53.032688
5824.218750	-52.918247
5825.195312	-53.082199
5826.171875	-52.861401
5827.148438	-52.722126
5828.125000	-52.071682
5829.101562	-51.970821
5830.078125	-52.473312
5831.054688	-51.536732
5832.031250	-52.870800
5833.007812	-51.910042
5833.984375	-52.755829
5834.960938	-51.902096
5835.937500	-51.912811
5836.914062	-51.709148
5837.890625	-51.981445
5838.867188	-52.079292
5839.843750	-52.466194
5840.820312	-51.001595
5841.796875	-52.951962
5842.773438	-52.847641
5843.750000	-52.088123
5844.726562	-51.957611
5845.703125	-52.677876
5846.679688	-52.563816
5847.656250	-51.398392
5848.632812	-51.935959
5849.609375	-52.365776
5850.585938	-52.445995
5851.562500	-53.333614
5852.539062	-52.666954
5853.515625	-51.915043
5854.492188	-52.504181
5855.468750	-51.973305
5856.445312	-52.611221
5857.421875	-52.279385
5858.398438	-52.256638
5859.375000	-51.453339
5860.351562	-52.090420
5861.328125	-51.555958
5862.304688	-52.407558
5863.281250	-52.778542
5864.257812	-52.445881
5865.234375	-52.806084
5866.210938	-53.058464
5867.187500	-54.129333
5868.164062	-53.361279
5869.140625	-52.038315
5870.117188	-52.400391
5871.093750	-53.044205
5872.070312	-51.894047
5873.046875	-52.434631
5874.023438	-52.137062
5875.000000	-52.356518
5875.976562	-53.399910
5876.953125	-52.449150
5877.929688	-52.438965
5878.906250	-54.391026
5879.882812	-54.062035
5880.859375	-53.047970
5881.835938	-52.669899
5882.812500	-52.774040
5883.789062	-53.273689
5884.765625	-51.557949
5885.742188	-52.638218
5886.718750	-52.377010
5887.695312	-52.294285
5888.671875	-53.315525
5889.648438	-53.957703
5890.625000	-52.396713
5891.601562	-53.178402
5892.578125	-51.955135
5893.554688	-52.642132
5894.531250	-54.149395
5895.507812	-53.384220
5896.484375	-54.073551
5897.460938	-53.173119
5898.437500	-52.450825
5899.414062	-52.528297
5900.390625	-52.538803
5901.367188	-53.387184
5902.343750	-52.455997
5903.320312	-52.910461
5904.296875	-53.301792
5905.273438	-52.067093
5906.250000	-52.812294
5907.226562	-51.848362
5908.203125	-52.363297
5909.179688	-53.237335
5910.156250	-51.576134
5911.132812	-51.768414
5912.109375	-51.975655
5913.085938	-51.946510
5914.062500	-52.497219
5915.039062	-52.513157
5916.015625	-51.962822
5916.992188	-50.687901
5917.968750	-51.981506
5918.945312	-50.961132
5919.921875	-51.434620
5920.898438	-53.267868
5921.875000	-52.831856
5922.851562	-51.389122
5923.828125	-51.438557
5924.804688	-51.797035
5925.781250	-51.408909
5926.757812	-51.768696
5927.734375	-51.242016
5928.710938	-52.707962
5929.687500	-52.173260
5930.664062	-50.661427
5931.640625	-52.152370
5932.617188	-50.748661
5933.593750	-50.595997
5934.570312	-51.887913
5935.546875	-52.073490
5936.523438	-52.672108
5937.500000	-51.429550
5938.476562	-51.455143
5939.453125	-50.546864
5940.429688	-50.322735
5941.406250	-52.455566
5942.382812	-52.071915
5943.359375	-50.333221
5944.335938	-50.726444
5945.312500	-51.135654
5946.289062	-51.504356
5947.265625	-51.623348
5948.242188	-52.042629
5949.218750	-50.718922
5950.195312	-50.726833
5951.171875	-52.337257
5952.148438	-51.513500
5953.125000	-50.640320
5954.101562	-51.076942
5955.078125	-50.102779
5956.054688	-51.818966
5957.031250	-52.132275
5958.007812	-50.376633
5958.984375	-49.961872
5959.960938	-51.511337
5960.937500	-51.900215
5961.914062	-51.477100
5962.890625	-51.381931
5963.867188	-50.518776
5964.843750	-50.025642
5965.820312	-50.187580
5966.796875	-51.540802
5967.773438	-50.812317
5968.750000	-51.768257
5969.726562	-51.990547
5970.703125	-50.677876
5971.679688	-49.483917
5972.656250	-49.395618
5973.632812	-50.464867
5974.609375	-50.616032
5975.585938	-49.447990
5976.562500	-50.436218
5977.539062	-50.900951
5978.515625	-50.862034
5979.492188	-50.235821
5980.468750	-50.501774
5981.445312	-50.123466
5982.421875	-50.324707
5983.398438	-50.260647
5984.375000	-49.734653
5985.351562	-48.744728
5986.328125	-49.184616
5987.304688	-49.302784
5988.281250	-49.536728
5989.257812	-49.247528
5990.234375	-49.719601
5991.210938	-49.956219
5992.187500	-48.389973
5993.164062	-49.708382
5994.140625	-49.221596
5995.117188	-49.819450
5996.093750	-48.565041
5997.070312	-48.039940
5998.046875	-51.459335
5999.023438	-50.846394
6000.000000	-50.744251
6000.976562	-51.029068
6001.953125	-50.054424
6002.929688	-48.396797
6003.906250	-48.276573
6004.882812	-49.168243
6005.859375	-48.984486
6006.835938	-49.426197
6007.812500	-50.796455
6008.789062	-48.701614
6009.765625	-49.559696
6010.742188	-48.526543
6011.718750	-49.064865
6012.695312	-48.181255
6013.671875	-48.676929
6014.648438	-49.240341
6015.625000	-47.541534
6016.601562	-48.814602
6017.578125	-49.038803
6018.554688	-49.806286
6019.531250	-49.021870
6020.507812	-49.374428
6021.484375	-49.015472
6022.460938	-49.215023
6023.437500	-48.727943
6024.414062	-48.952217
6025.390625	-49.216908
6026.367188	-48.864101
6027.343750	-47.333027
6028.320312	-47.832985
6029.296875	-48.318317
6030.273438	-48.239311
6031.250000	-46.924442
6032.226562	-47.402119
6033.203125	-48.120251
6034.179688	-46.231110
6035.156250	-46.808594
6036.132812	-48.115841
6037.109375	-50.133263
6038.085938	-48.230331
6039.062500	-48.212856
6040.039062	-48.464813
6041.015625	-48.258289
6041.992188	-48.047974
6042.968750	-47.780838
6043.945312	-48.811611
6044.921875	-48.244411
6045.898438	-48.252998
6046.875000	-47.636719
6047.851562	-47.204247
6048.828125	-48.118626
6049.804688	-47.646824
6050.781250	-46.770344
6051.757812	-49.369835
6052.734375	-47.607975
6053.710938	-47.760555
6054.687500	-47.363785
6055.664062	-47.284447
6056.640625	-46.953426
6057.617188	-46.492516
6058.593750	-45.900875
6059.570312	-46.341557
6060.546875	-47.142658
6061.523438	-47.362305
6062.500000	-46.863373
6063.476562	-47.173580
6064.453125	-47.898998
6065.429688	-47.484318
6066.406250	-46.314526
6067.382812	-46.736729
6068.359375	-47.253258
6069.335938	-46.390415
6070.312500	-47.113026
6071.289062	-48.834652
6072.265625	-48.783638
6073.242188	-47.217709
6074.218750	-46.351841
6075.195312	-46.150368
6076.171875	-46.813511
6077.148438	-47.993542
6078.125000	-46.936554
6079.101562	-46.410831
6080.078125	-47.249012
6081.054688	-46.697155
6082.031250	-46.038540
6083.007812	-46.341629
6083.984375	-45.616257
6084.960938	-46.739647
6085.937500	-47.243748
6086.914062	-46.529945
6087.890625	-47.174744
6088.867188	-47.132710
6089.843750	-46.314014
6090.820312	-47.088573
6091.796875	-46.434326
6092.773438	-46.522568
6093.750000	-46.138111
6094.726562	-45.837936
6095.703125	-45.741570
6096.679688	-46.332050
6097.656250	-44.777458
6098.632812	-45.116817
6099.609375	-45.182312
6100.585938	-46.062241
6101.562500	-44.089874
6102.539062	-46.510094
6103.515625	-45.150429
6104.492188	-45.762917
6105.468750	-45.505913
6106.445312	-46.663837
6107.421875	-46.361729
6108.398438	-45.839043
6109.375000	-45.217815
6110.351562	-44.692524
6111.328125	-45.327354
6112.304688	-46.322563
6113.281250	-46.757530
6114.257812	-45.209045
6115.234375	-46.411583
6116.210938	-44.958672
6117.187500	-45.308502
6118.164062	-45.823360
6119.140625	-45.170147
6120.117188	-44.767365
6121.093750	-44.894306
6122.070312	-44.985771
6123.046875	-45.683842
6124.023438	-44.617756
6125.000000	-43.941814
6125.976562	-43.100403
6126.953125	-42.707466
6127.929688	-44.041729
6128.906250	-45.711712
6129.882812	-42.849113
6130.859375	-44.937954
6131.835938	-45.079082
6132.812500	-45.312332
6133.789062	-45.616062
6134.765625	-46.881489
6135.742188	-46.014404
6136.718750	-43.698944
6137.695312	-45.408669
6138.671875	-46.171562
6139.648438	-43.639977
6140.625000	-43.828354
6141.601562	-44.250000
6142.578125	-44.463024
6143.554688	-44.727631
6144.531250	-44.581470
6145.507812	-43.498859
6146.484375	-45.184067
6147.460938	-45.694748
6148.437500	-44.115627
6149.414062	-42.417610
6150.390625	-43.522900
6151.367188	-43.449829
6152.343750	-43.606117
6153.320312	-44.323875
6154.296875	-44.474510
6155.273438	-44.178619
6156.250000	-42.369232
6157.226562	-43.581818
6158.203125	-43.979294
6159.179688	-43.253937
6160.156250	-43.719162
6161.132812	-44.373001
6162.109375	-43.832211
6163.085938	-44.330914
6164.062500	-44.676250
6165.039062	-44.983940
6166.015625	-44.617466
6166.992188	-44.189480
6167.968750	-42.369259
6168.945312	-44.175762
6169.921875	-45.219910
6170.898438	-43.344566
6171.875000	-44.756447
6172.851562	-45.761776
6173.828125	-43.575142
6174.804688	-43.954262
6175.781250	-43.044601
6176.757812	-42.180138
6177.734375	-42.996510
6178.710938	-46.531986
6179.687500	-44.939960
6180.664062	-43.598000
6181.640625	-42.850479
6182.617188	-44.367813
6183.593750	-45.244698
6184.570312	-44.315342
6185.546875	-44.349049
6186.523438	-46.003613
6187.500000	-43.912632
6188.476562	-44.183422
6189.453125	-45.955849
6190.429688	-44.400906
6191.406250	-44.886036
6192.382812	-44.385288
6193.359375	-44.516865
6194.335938	-43.765915
6195.312500	-42.559959
6196.289062	-44.242851
6197.265625	-44.175606
6198.242188	-44.174110
6199.218750	-43.843407
6200.195312	-42.393848
6201.171875	-43.606564
6202.148438	-44.469822
6203.125000	-43.581177
6204.101562	-43.673061
6205.078125	-42.975651
6206.054688	-45.713181
6207.031250	-45.576809
6208.007812	-45.654564
6208.984375	-45.143520
6209.960938	-46.652908
6210.937500	-46.862007
6211.914062	-46.049885
6212.890625	-46.256031
6213.867188	-43.861687
6214.843750	-44.788143
6215.820312	-44.173550
6216.796875	-45.269962
6217.773438	-45.587769
6218.750000	-46.512386
6219.726562	-45.411285
6220.703125	-44.919788
6221.679688	-46.164543
6222.656250	-46.356747
6223.632812	-46.314117
6224.609375	-44.892738
6225.585938	-44.859013
6226.562500	-43.490780
6227.539062	-43.865364
6228.515625	-43.846405
6229.492188	-45.744869
6230.468750	-45.497585
6231.445312	-45.010624
6232.421875	-44.570225
6233.398438	-45.049747
6234.375000	-45.500019
6235.351562	-45.737942
6236.328125	-46.474007
6237.304688	-44.725170
6238.281250	-44.148640
6239.257812	-47.094948
6240.234375	-45.879063
6241.210938	-48.357132
6242.187500	-47.808826
6243.164062	-46.674747
6244.140625	-47.666210
6245.117188	-46.786674
6246.093750	-45.857700
6247.070312	-46.634434
6248.046875	-44.564644
6249.023438	-47.402733
6250.000000	-47.267376
6250.976562	-47.105083
6251.953125	-45.204514
6252.929688	-47.653881
6253.906250	-46.517120
6254.882812	-46.295879
6255.859375	-47.678177
6256.835938	-47.842491
6257.812500	-48.648991
6258.789062	-47.170189
6259.765625	-47.651524
6260.742188	-46.789955
6261.718750	-48.576378
6262.695312	-46.830658
6263.671875	-46.995216
6264.648438	-46.691868
6265.625000	-47.198303
6266.601562	-46.920921
6267.578125	-47.205906
6268.554688	-45.839413
6269.531250	-46.690132
6270.507812	-47.695335
6271.484375	-47.659115
6272.460938	-47.680988
6273.437500	-46.066910
6274.414062	-47.018120
6275.390625	-45.863342
6276.367188	-47.855862
6277.343750	-47.119190
6278.320312	-48.076790
6279.296875	-48.046028
6280.273438	-50.297127
6281.250000	-48.611462
6282.226562	-48.561329
6283.203125	-49.052181
6284.179688	-48.890648
6285.156250	-50.085518
6286.132812	-48.132515
6287.109375	-48.761063
6288.085938	-48.233784
6289.062500	-49.734463
6290.039062	-48.820171
6291.015625	-48.893402
6291.992188	-47.387978
6292.968750	-48.173435
6293.945312	-46.937756
6294.921875	-49.384747
6295.898438	-50.120403
6296.875000	-49.777199
6297.851562	-50.148724
6298.828125	-46.883160
6299.804688	-48.241199
6300.781250	-47.805706
6301.757812	-47.979820
6302.734375	-49.551994
6303.710938	-48.063625
6304.687500	-49.446461
6305.664062	-50.974808
6306.640625	-48.772602
6307.617188	-48.223782
6308.593750	-48.537376
6309.570312	-47.777744
6310.546875	-49.132126
6311.523438	-50.770943
6312.500000	-49.245045
6313.476562	-50.003544
6314.453125	-52.369705
6315.429688	-49.502663
6316.406250	-49.160934
6317.382812	-48.898335
6318.359375	-48.733192
6319.335938	-49.529377
6320.312500	-49.538345
6321.289062	-49.167797
6322.265625	-48.848961
6323.242188	-50.774162
6324.218750	-50.447311
6325.195312	-48.442844
6326.171875	-50.381847
6327.148438	-49.487442
6328.125000	-49.889515
6329.101562	-51.051029
6330.078125	-49.915070
6331.054688	-50.299133
6332.031250	-50.036491
6333.007812	-49.239323
6333.984375	-48.926907
6334.960938	-48.719528
6335.937500	-50.243259
6336.914062	-49.733650
6337.890625	-51.128677
6338.867188	-50.333595
6339.843750	-50.582581
6340.820312	-50.188782
6341.796875	-50.105232
6342.773438	-49.191700
6343.750000	-49.691288
6344.726562	-50.492538
6345.703125	-49.945091
6346.679688	-51.873924
6347.656250	-51.646046
6348.632812	-50.841663
6349.609375	-49.000057
6350.585938	-50.082600
6351.562500	-50.051971
6352.539062	-50.897999
6353.515625	-50.899048
6354.492188	-49.458427
6355.468750	-50.175644
6356.445312	-48.351498
6357.421875	-49.018822
6358.398438	-49.914188
6359.375000	-51.197205
6360.351562	-50.355488
6361.328125	-49.437077
6362.304688	-50.133202
6363.281250	-50.436886
6364.257812	-49.851471
6365.234375	-49.296188
6366.210938	-49.957867
6367.187500	-49.501507
6368.164062	-51.032005
6369.140625	-50.723656
6370.117188	-49.468872
6371.093750	-48.226814
6372.070312	-49.097775
6373.046875	-49.635777
6374.023438	-49.238762
6375.000000	-49.111870
6375.976562	-50.215412
6376.953125	-50.416901
6377.929688	-49.597721
6378.906250	-50.513741
6379.882812	-50.788757
6380.859375	-49.376942
6381.835938	-51.165035
6382.812500	-50.461086
6383.789062	-50.166344
6384.765625	-50.603683
6385.742188	-49.629974
6386.718750	-49.121174
6387.695312	-49.851570
6388.671875	-48.846146
6389.648438	-50.511425
6390.625000	-51.427151
6391.601562	-49.270802
6392.578125	-49.815342
6393.554688	-50.044567
6394.531250	-50.623634
6395.507812	-48.814560
6396.484375	-49.553917
6397.460938	-48.601322
6398.437500	-49.161087
6399.414062	-49.995232
6400.390625	-49.902168
6401.367188	-50.084621
6402.343750	-50.302715
6403.320312	-50.539478
6404.296875	-50.425518
6405.273438	-49.990974
6406.250000	-49.632759
6407.226562	-48.611931
6408.203125	-49.454308
6409.179688	-49.768974
6410.156250	-50.274162
6411.132812	-51.451595
6412.109375	-52.467785
6413.085938	-51.276100
6414.062500	-49.925121
6415.039062	-49.042450
6416.015625	-49.059700
6416.992188	-50.034454
6417.968750	-48.973000
6418.945312	-49.616936
6419.921875	-50.137959
6420.898438	-49.871384
6421.875000	-50.104027
6422.851562	-48.590271
6423.828125	-48.380951
6424.804688	-49.946388
6425.781250	-48.707405
6426.757812	-50.508430
6427.734375	-48.698536
6428.710938	-49.848122
6429.687500	-49.737160
6430.664062	-49.300297
6431.640625	-49.546711
6432.617188	-49.460388
6433.593750	-48.944176
6434.570312	-51.370670
6435.546875	-48.940121
6436.523438	-48.222019
6437.500000	-47.744156
6438.476562	-47.769417
6439.453125	-49.412003
6440.429688	-47.534107
6441.406250	-47.577484
6442.382812	-49.058128
6443.359375	-51.274784
6444.335938	-50.390884
6445.312500	-49.588150
6446.289062	-50.582005
6447.265625	-50.213867
6448.242188	-47.004631
6449.218750	-50.484127
6450.195312	-50.897892
6451.171875	-49.686268
6452.148438	-50.783768
6453.125000	-48.830933
6454.101562	-50.138680
6455.078125	-50.157810
6456.054688	-49.072941
6457.031250	-48.380939
6458.007812	-50.250465
6458.984375	-50.162392
6459.960938	-49.517437
6460.937500	-48.278156
6461.914062	-48.499359
6462.890625	-48.595764
6463.867188	-49.105511
6464.843750	-48.381554
6465.820312	-47.651272
6466.796875	-49.794067
6467.773438	-48.644466
6468.750000	-48.548019
6469.726562	-48.453472
6470.703125	-48.245342
6471.679688	-46.700844
6472.656250	-48.135464
6473.632812	-46.905811
6474.609375	-46.201710
6475.585938	-48.192905
6476.562500	-48.544308
6477.539062	-47.973347
6478.515625	-48.845795
6479.492188	-48.737953
6480.468750	-48.636677
6481.445312	-49.561218
6482.421875	-47.586693
6483.398438	-48.657299
6484.375000	-48.217377
6485.351562	-48.008202
6486.328125	-46.893204
6487.304688	-45.534081
6488.281250	-45.717388
6489.257812	-47.069313
6490.234375	-46.877193
6491.210938	-47.713135
6492.187500	-46.851860
6493.164062	-47.973747
6494.140625	-48.079014
6495.117188	-46.176388
6496.093750	-46.557526
6497.070312	-47.720905
6498.046875	-46.753521
6499.023438	-48.778069
6500.000000	-47.473534
6500.976562	-47.145016
6501.953125	-48.945259
6502.929688	-48.936081
6503.906250	-47.290470
6504.882812	-45.010212
6505.859375	-45.762543
6506.835938	-46.234226
6507.812500	-46.795780
6508.789062	-45.353195
6509.765625	-47.945061
6510.742188	-46.901604
6511.718750	-45.966167
6512.695312	-46.253872
6513.671875	-47.438583
6514.648438	-47.200455
6515.625000	-45.443871
6516.601562	-45.634914
6517.578125	-44.777279
6518.554688	-45.163189
6519.531250	-46.504280
6520.507812	-46.676529
6521.484375	-46.635887
6522.460938	-45.451057
6523.437500	-44.780628
6524.414062	-46.898605
6525.390625	-46.480221
6526.367188	-46.556976
6527.343750	-47.554256
6528.320312	-47.996548
6529.296875	-45.755077
6530.273438	-44.821896
6531.250000	-44.316105
6532.226562	-44.199173
6533.203125	-45.179966
6534.179688	-45.505215
6535.156250	-46.549839
6536.132812	-46.569847
6537.109375	-45.585407
6538.085938	-45.604816
6539.062500	-43.764061
6540.039062	-45.025425
6541.015625	-45.008286
6541.992188	-45.396065
6542.968750	-45.142086
6543.945312	-46.548248
6544.921875	-44.721478
6545.898438	-46.170578
6546.875000	-44.234600
6547.851562	-45.591511
6548.828125	-44.837509
6549.804688	-45.659672
6550.781250	-45.694618
6551.757812	-46.799030
6552.734375	-45.934826
6553.710938	-47.088531
6554.687500	-47.620247
6555.664062	-46.634262
6556.640625	-45.648987
6557.617188	-44.768715
6558.593750	-43.507866
6559.570312	-44.661217
6560.546875	-44.616959
6561.523438	-46.213039
6562.500000	-44.500511
6563.476562	-44.915264
6564.453125	-44.527279
6565.429688	-44.732841
6566.406250	-44.414299
6567.382812	-45.122623
6568.359375	-45.696781
6569.335938	-46.313892
6570.312500	-45.034985
6571.289062	-43.610188
6572.265625	-45.466488
6573.242188	-42.998367
6574.218750	-43.892933
6575.195312	-45.762470
6576.171875	-45.359180
6577.148438	-45.573563
6578.125000	-45.156513
6579.101562	-45.413799
6580.078125	-45.333344
6581.054688	-43.925243
6582.031250	-44.681797
6583.007812	-44.269978
6583.984375	-45.104500
6584.960938	-45.359543
6585.937500	-44.566448
6586.914062	-45.741722
6587.890625	-45.634907
6588.867188	-45.640465
6589.843750	-46.507954
6590.820312	-46.645508
6591.796875	-44.327457
6592.773438	-45.932804
6593.750000	-43.809299
6594.726562	-45.078518
6595.703125	-44.973450
6596.679688	-44.222359
6597.656250	-44.704189
6598.632812	-44.964085
6599.609375	-43.006130
6600.585938	-43.756039
6601.562500	-44.493839
6602.539062	-45.449818
6603.515625	-46.398579
6604.492188	-47.679020
6605.468750	-46.143810
6606.445312	-45.173428
6607.421875	-43.969456
6608.398438	-44.262806
6609.375000	-44.708145
6610.351562	-44.740128
6611.328125	-44.379612
6612.304688	-44.006115
6613.281250	-44.749996
6614.257812	-44.159435
6615.234375	-43.876080
6616.210938	-45.246529
6617.187500	-44.370834
6618.164062	-45.661369
6619.140625	-46.846962
6620.117188	-46.042751
6621.093750	-46.091850
6622.070312	-46.344528
6623.046875	-46.145462
6624.023438	-46.538319
6625.000000	-46.639362
6625.976562	-46.937290
6626.953125	-46.549213
6627.929688	-46.312107
6628.906250	-46.174667
6629.882812	-46.103703
6630.859375	-46.658333
6631.835938	-46.526737
6632.812500	-45.715000
6633.789062	-44.595963
6634.765625	-45.510052
6635.742188	-46.018860
6636.718750	-46.358059
6637.695312	-46.393822
6638.671875	-47.053104
6639.648438	-49.050838
6640.625000	-48.565632
6641.601562	-46.511395
6642.578125	-47.844021
6643.554688	-46.028847
6644.531250	-46.109127
6645.507812	-47.145077
6646.484375	-46.493969
6647.460938	-46.325706
6648.437500	-46.887383
6649.414062	-46.379631
6650.390625	-46.922359
6651.367188	-46.720943
6652.343750	-45.589138
6653.320312	-44.675430
6654.296875	-46.859013
6655.273438	-47.468174
6656.250000	-46.974319
6657.226562	-47.618740
6658.203125	-49.242775
6659.179688	-48.039707
6660.156250	-49.015358
6661.132812	-49.419609
6662.109375	-48.516788
6663.085938	-49.178299
6664.062500	-47.889408
6665.039062	-47.873352
6666.015625	-47.440945
6666.992188	-48.062016
6667.968750	-47.651596
6668.945312	-48.094883
6669.921875	-48.058086
6670.898438	-48.120865
6671.875000	-48.981594
6672.851562	-49.828861
6673.828125	-49.857681
6674.804688	-51.815403
6675.781250	-50.739513
6676.757812	-51.424301
6677.734375	-50.962971
6678.710938	-49.305111
6679.687500	-48.870434
6680.664062	-49.025875
6681.640625	-48.970261
6682.617188	-48.528309
6683.593750	-47.819408
6684.570312	-49.555847
6685.546875	-49.276978
6686.523438	-50.171673
6687.500000	-50.375706
6688.476562	-49.019894
6689.453125	-49.539818
6690.429688	-49.757633
6691.406250	-49.862793
6692.382812	-49.713573
6693.359375	-50.768772
6694.335938	-50.250206
6695.312500	-48.595619
6696.289062	-51.807896
6697.265625	-51.210621
6698.242188	-49.687862
6699.218750	-50.513954
6700.195312	-51.246159
6701.171875	-50.526566
6702.148438	-50.795959
6703.125000	-50.347485
6704.101562	-50.167690
6705.078125	-49.956841
6706.054688	-50.277657
6707.031250	-51.982483
6708.007812	-51.937767
6708.984375	-51.736286
6709.960938	-52.260857
6710.937500	-52.823463
6711.914062	-52.209412
6712.890625	-51.829292
6713.867188	-50.308418
6714.843750	-50.342815
6715.820312	-50.636761
6716.796875	-50.758007
6717.773438	-51.383987
6718.750000	-51.107437
6719.726562	-50.693810
6720.703125	-52.562332
6721.679688	-52.077446
6722.656250	-52.777878
6723.632812	-51.623703
6724.609375	-51.515377
6725.585938	-51.644310
6726.562500	-52.171432
6727.539062	-51.208157
6728.515625	-52.051971
6729.492188	-52.221821
6730.468750	-54.765499
6731.445312	-52.493717
6732.421875	-52.049206
6733.398438	-51.576092
6734.375000	-50.914837
6735.351562	-52.937546
6736.328125	-54.022522
6737.304688	-51.390453
6738.281250	-51.986927
6739.257812	-50.741890
6740.234375	-52.349091
6741.210938	-53.690041
6742.187500	-51.696274
6743.164062	-53.552120
6744.140625	-53.692459
6745.117188	-53.284306
6746.093750	-53.405731
6747.070312	-54.359840
6748.046875	-53.119770
6749.023438	-51.715786
6750.000000	-52.284290
6750.976562	-52.300850
6751.953125	-54.177284
6752.929688	-53.709831
6753.906250	-53.199619
6754.882812	-53.862701
6755.859375	-53.297356
6756.835938	-52.645241
6757.812500	-53.707542
6758.789062	-54.896046
6759.765625	-53.919609
6760.742188	-54.927319
6761.718750	-53.380920
6762.695312	-52.364624
6763.671875	-52.852943
6764.648438	-52.973530
6765.625000	-54.524742
6766.601562	-52.629295
6767.578125	-52.537960
6768.554688	-54.012264
6769.531250	-53.250107
6770.507812	-54.544643
6771.484375	-54.032375
6772.460938	-54.149307
6773.437500	-52.980354
6774.414062	-51.986298
6775.390625	-52.674213
6776.367188	-54.083778
6777.343750	-53.060150
6778.320312	-52.926510
6779.296875	-52.127678
6780.273438	-54.545559
6781.250000	-54.143887
6782.226562	-54.325371
6783.203125	-55.340668
6784.179688	-53.846703
6785.156250	-53.376591
6786.132812	-53.908817
6787.109375	-55.444630
6788.085938	-54.976776
6789.062500	-54.540329
6790.039062	-53.942379
6791.015625	-54.816513
6791.992188	-54.616859
6792.968750	-54.613831
6793.945312	-55.075809
6794.921875	-55.324947
6795.898438	-54.223362
6796.875000	-54.583252
6797.851562	-53.790493
6798.828125	-53.934834
6799.804688	-52.999104
6800.781250	-52.754944
6801.757812	-55.104588
6802.734375	-54.054028
6803.710938	-54.419506
6804.687500	-53.240841
6805.664062	-55.730988
6806.640625	-53.136635
6807.617188	-54.711262
6808.593750	-54.232201
6809.570312	-54.004314
6810.546875	-53.950253
6811.523438	-55.899509
6812.500000	-53.175396
6813.476562	-53.188354
6814.453125	-54.909069
6815.429688	-54.284302
6816.406250	-53.737343
6817.382812	-53.519855
6818.359375	-55.088440
6819.335938	-54.086338
6820.312500	-55.010395
6821.289062	-54.927116
6822.265625	-54.450485
6823.242188	-54.296642
6824.218750	-57.279587
6825.195312	-56.563259
6826.171875	-55.069828
6827.148438	-55.259644
6828.125000	-54.867455
6829.101562	-55.206490
6830.078125	-55.425911
6831.054688	-55.723278
6832.031250	-53.277290
6833.007812	-53.762177
6833.984375	-53.230106
6834.960938	-54.570591
6835.937500	-54.794334
6836.914062	-54.885864
6837.890625	-54.994839
6838.867188	-54.130173
6839.843750	-53.303242
6840.820312	-53.705559
6841.796875	-54.020454
6842.773438	-55.018234
6843.750000	-54.248398
6844.726562	-55.186653
6845.703125	-54.743870
6846.679688	-54.099308
6847.656250	-56.058426
6848.632812	-54.746334
6849.609375	-53.978737
6850.585938	-55.271717
6851.562500	-53.684261
6852.539062	-53.952152
6853.515625	-54.186592
6854.492188	-54.880508
6855.468750	-55.621700
6856.445312	-54.637539
6857.421875	-54.665607
6858.398438	-54.661812
6859.375000	-54.186142
6860.351562	-54.692265
6861.328125	-54.241550
6862.304688	-54.468441
6863.281250	-53.252045
6864.257812	-54.296143
6865.234375	-54.222351
6866.210938	-54.241508
6867.187500	-56.349915
6868.164062	-55.001125
6869.140625	-54.118340
6870.117188	-53.647320
6871.093750	-54.272808
6872.070312	-54.355759
6873.046875	-55.436321
6874.023438	-54.298069
6875.000000	-54.880833
6875.976562	-56.115940
6876.953125	-56.323433
6877.929688	-55.247387
6878.906250	-54.256599
6879.882812	-56.372074
6880.859375	-56.502209
6881.835938	-54.653542
6882.812500	-54.846508
6883.789062	-54.715256
6884.765625	-55.137405
6885.742188	-54.410179
6886.718750	-54.149460
6887.695312	-54.361404
6888.671875	-55.468967
6889.648438	-53.878471
6890.625000	-54.226723
6891.601562	-53.255047
6892.578125	-55.077728
6893.554688	-54.493233
6894.531250	-54.578865
6895.507812	-54.120743
6896.484375	-54.839790
6897.460938	-55.509380
6898.437500	-56.871651
6899.414062	-55.827415
6900.390625	-56.560513
6901.367188	-54.859619
6902.343750	-54.133556
6903.320312	-55.574520
6904.296875	-54.674675
6905.273438	-54.985107
6906.250000	-53.444736
6907.226562	-55.428032
6908.203125	-54.792740
6909.179688	-56.809822
6910.156250	-57.145515
6911.132812	-56.114826
6912.109375	-55.255680
6913.085938	-55.426006
6914.062500	-55.787910
6915.039062	-56.306034
6916.015625	-54.504139
6916.992188	-56.473038
6917.968750	-56.047859
6918.945312	-54.694057
6919.921875	-54.227543
6920.898438	-55.591640
6921.875000	-55.683384
6922.851562	-54.959103
6923.828125	-54.880413
6924.804688	-56.138470
6925.781250	-56.530849
6926.757812	-56.806713
6927.734375	-56.270000
6928.710938	-56.691643
6929.687500	-56.492615
6930.664062	-56.329288
6931.640625	-55.931187
6932.617188	-55.528126
6933.593750	-56.771194
6934.570312	-56.605404
6935.546875	-56.723923
6936.523438	-56.709419
6937.500000	-56.010372
6938.476562	-56.361984
6939.453125	-56.270046
6940.429688	-55.839424
6941.406250	-55.503922
6942.382812	-56.132713
6943.359375	-56.344818
6944.335938	-55.952221
6945.312500	-56.742554
6946.289062	-55.202744
6947.265625	-57.100010
6948.242188	-57.086617
6949.218750	-56.833393
6950.195312	-56.659657
6951.171875	-56.403629
6952.148438	-57.127476
6953.125000	-57.140453
6954.101562	-57.401314
6955.078125	-58.556629
6956.054688	-56.362930
6957.031250	-57.202694
6958.007812	-57.686768
6958.984375	-56.686779
6959.960938	-56.527557
6960.937500	-56.744736
6961.914062	-58.265854
6962.890625	-56.486969
6963.867188	-57.332531
6964.843750	-57.597649
6965.820312	-57.483807
6966.796875	-56.937912
6967.773438	-56.846806
6968.750000	-56.873226
6969.726562	-58.166100
6970.703125	-58.163830
6971.679688	-55.302456
6972.656250	-57.138451
6973.632812	-58.426304
6974.609375	-58.352367
6975.585938	-58.557880
6976.562500	-57.035042
6977.539062	-57.579384
6978.515625	-56.218346
6979.492188	-58.054432
6980.468750	-56.879684
6981.445312	-56.761604
6982.421875	-57.475742
6983.398438	-56.736324
6984.375000	-57.319504
6985.351562	-56.595947
6986.328125	-55.983974
6987.304688	-57.384846
6988.281250	-58.181309
6989.257812	-56.767303
6990.234375	-58.489632
6991.210938	-57.426579
6992.187500	-57.159157
6993.164062	-58.096676
6994.140625	-57.806705
6995.117188	-57.332405
6996.093750	-56.781700
6997.070312	-57.203304
6998.046875	-56.366840
6999.023438	-56.866573
7000.000000	-58.005623
7000.976562	-57.742413
7001.953125	-57.400478
7002.929688	-57.451706
7003.906250	-57.486320
7004.882812	-57.470249
7005.859375	-57.411263
7006.835938	-57.465370
7007.812500	-57.349957
7008.789062	-57.670845
7009.765625	-58.316177
7010.742188	-59.639530
7011.718750	-58.240547
7012.695312	-58.490208
7013.671875	-57.605251
7014.648438	-58.248650
7015.625000	-58.267006
7016.601562	-57.028145
7017.578125	-57.765545
7018.554688	-57.253559
7019.531250	-58.481388
7020.507812	-57.933250
7021.484375	-57.897717
7022.460938	-56.839226
7023.437500	-56.478764
7024.414062	-59.131439
7025.390625	-59.401596
7026.367188	-58.449249
7027.343750	-59.885330
7028.320312	-60.237209
7029.296875	-60.065228
7030.273438	-58.779560
7031.250000	-58.195244
7032.226562	-58.862480
7033.203125	-58.103092
7034.179688	-58.554207
7035.156250	-57.596428
7036.132812	-57.178375
7037.109375	-57.261528
7038.085938	-58.815842
7039.062500	-57.368679
7040.039062	-56.514133
7041.015625	-57.511318
7041.992188	-58.450775
7042.968750	-56.455746
7043.945312	-56.970222
7044.921875	-58.826359
7045.898438	-58.384655
7046.875000	-57.423092
7047.851562	-58.615749
7048.828125	-58.479156
7049.804688	-57.725407
7050.781250	-57.450348
7051.757812	-58.877598
7052.734375	-58.186848
7053.710938	-58.051758
7054.687500	-58.230721
7055.664062	-57.890888
7056.640625	-58.910934
7057.617188	-57.791569
7058.593750	-57.808552
7059.570312	-58.342079
7060.546875	-57.147747
7061.523438	-58.233860
7062.500000	-58.144135
7063.476562	-57.809544
7064.453125	-58.621052
7065.429688	-59.189663
7066.406250	-59.296135
7067.382812	-60.019566
7068.359375	-60.039181
7069.335938	-59.353107
7070.312500	-58.768829
7071.289062	-56.972832
7072.265625	-58.481007
7073.242188	-58.522469
7074.218750	-59.277416
7075.195312	-58.010662
7076.171875	-59.106632
7077.148438	-58.709202
7078.125000	-58.261059
7079.101562	-58.699623
7080.078125	-57.057362
7081.054688	-59.256256
7082.031250	-59.327572
7083.007812	-59.345966
7083.984375	-58.811947
7084.960938	-57.365532
7085.937500	-58.412418
7086.914062	-57.319584
7087.890625	-58.821541
7088.867188	-58.299507
7089.843750	-57.885254
7090.820312	-59.366871
7091.796875	-58.048668
7092.773438	-57.656483
7093.750000	-58.945679
7094.726562	-58.417114
7095.703125	-58.622486
7096.679688	-57.458286
7097.656250	-59.062714
7098.632812	-60.111946
7099.609375	-59.602230
7100.585938	-57.997631
7101.562500	-58.368694
7102.539062	-57.989098
7103.515625	-59.809708
7104.492188	-58.398151
7105.468750	-59.250450
7106.445312	-57.321606
7107.421875	-57.879829
7108.398438	-59.102501
7109.375000	-58.552101
7110.351562	-58.720413
7111.328125	-59.233349
7112.304688	-58.908897
7113.281250	-59.006332
7114.257812	-57.249680
7115.234375	-58.636631
7116.210938	-58.521805
7117.187500	-58.257965
7118.164062	-57.725277
7119.140625	-59.003044
7120.117188	-58.542622
7121.093750	-57.912506
7122.070312	-57.684467
7123.046875	-56.732460
7124.023438	-58.776142
7125.000000	-58.358452
7125.976562	-59.144882
7126.953125	-58.254749
7127.929688	-58.191624
7128.906250	-58.128860
7129.882812	-60.415386
7130.859375	-57.897739
7131.835938	-59.192883
7132.812500	-58.439388
7133.789062	-59.702450
7134.765625	-58.766701
7135.742188	-59.187931
7136.718750	-58.624100
7137.695312	-57.214447
7138.671875	-58.627911
7139.648438	-58.590820
7140.625000	-57.395157
7141.601562	-57.357491
7142.578125	-59.185867
7143.554688	-58.533638
7144.531250	-58.505486
7145.507812	-58.908352
7146.484375	-59.598881
7147.460938	-57.681892
7148.437500	-58.567951
7149.414062	-60.422760
7150.390625	-58.264580
7151.367188	-59.422279
7152.343750	-59.180473
7153.320312	-58.153088
7154.296875	-60.057629
7155.273438	-59.703178
7156.250000	-58.982151
7157.226562	-58.409588
7158.203125	-59.393963
7159.179688	-58.883305
7160.156250	-57.902504
7161.132812	-58.902657
7162.109375	-59.854057
7163.085938	-59.192856
7164.062500	-58.928185
7165.039062	-59.968529
7166.015625	-58.877033
7166.992188	-59.158192
7167.968750	-58.188759
7168.945312	-59.248531
7169.921875	-59.436638
7170.898438	-59.791019
7171.875000	-58.958252
7172.851562	-58.990028
7173.828125	-58.685371
7174.804688	-56.762356
7175.781250	-58.268177
7176.757812	-58.500629
7177.734375	-59.861019
7178.710938	-58.671913
7179.687500	-58.530998
7180.664062	-58.453236
7181.640625	-58.803013
7182.617188	-59.466621
7183.593750	-59.162643
7184.570312	-59.954185
7185.546875	-60.795021
7186.523438	-60.570377
7187.500000	-58.563332
7188.476562	-60.052849
7189.453125	-59.054752
7190.429688	-59.176922
7191.406250	-58.760082
7192.382812	-58.908611
7193.359375	-60.248680
7194.335938	-58.546329
7195.312500	-58.792107
7196.289062	-58.749527
7197.265625	-60.553555
7198.242188	-59.220303
7199.218750	-59.151752
7200.195312	-58.128918
7201.171875	-58.814075
7202.148438	-59.854141
7203.125000	-59.777554
7204.101562	-60.009682
7205.078125	-59.832584
7206.054688	-59.815903
7207.031250	-60.214951
7208.007812	-61.236668
7208.984375	-60.154358
7209.960938	-59.791588
7210.937500	-58.750782
7211.914062	-58.374889
7212.890625	-58.128029
7213.867188	-57.555309
7214.843750	-58.468445
7215.820312	-59.701328
7216.796875	-60.109264
7217.773438	-61.349762
7218.750000	-58.387913
7219.726562	-60.508869
7220.703125	-60.037937
7221.679688	-61.343189
7222.656250	-59.857254
7223.632812	-58.871216
7224.609375	-59.818253
7225.585938	-60.083374
7226.562500	-60.644619
7227.539062	-60.724976
7228.515625	-61.222832
7229.492188	-59.301579
7230.468750	-60.755978
7231.445312	-60.083744
7232.421875	-59.250599
7233.398438	-57.922855
7234.375000	-60.343117
7235.351562	-59.123146
7236.328125	-58.360733
7237.304688	-59.623127
7238.281250	-61.381973
7239.257812	-60.076729
7240.234375	-60.297413
7241.210938	-60.602615
7242.187500	-59.857544
7243.164062	-59.990707
7244.140625	-61.925838
7245.117188	-60.137615
7246.093750	-61.691063
7247.070312	-61.438984
7248.046875	-60.850491
7249.023438	-62.132240
7250.000000	-61.054527
7250.976562	-59.834705
7251.953125	-60.856590
7252.929688	-59.857414
7253.906250	-60.923199
7254.882812	-60.705074
7255.859375	-60.575680
7256.835938	-59.265839
7257.812500	-60.501461
7258.789062	-60.361279
7259.765625	-61.135380
7260.742188	-60.973370
7261.718750	-61.457413
7262.695312	-61.306324
7263.671875	-60.015919
7264.648438	-62.270309
7265.625000	-60.480282
7266.601562	-61.507862
7267.578125	-59.498497
7268.554688	-60.694092
7269.531250	-61.582306
7270.507812	-62.187164
7271.484375	-61.641090
7272.460938	-61.647186
7273.437500	-61.246307
7274.414062	-61.363426
7275.390625	-61.068386
7276.367188	-60.739162
7277.343750	-60.090343
7278.320312	-60.612236
7279.296875	-60.743782
7280.273438	-60.649715
7281.250000	-61.834496
7282.226562	-61.068066
7283.203125	-62.039944
7284.179688	-62.691059
7285.156250	-61.166595
7286.132812	-61.688011
7287.109375	-61.611542
7288.085938	-62.518688
7289.062500	-61.186752
7290.039062	-61.084351
7291.015625	-60.895912
7291.992188	-61.199558
7292.968750	-60.163200
7293.945312	-62.223373
7294.921875	-60.593227
7295.898438	-62.980450
7296.875000	-63.060654
7297.851562	-63.174526
7298.828125	-62.798553
7299.804688	-61.727413
7300.781250	-61.127155
7301.757812	-62.021400
7302.734375	-61.165203
7303.710938	-62.180969
7304.687500	-60.959370
7305.664062	-61.173016
7306.640625	-61.981468
7307.617188	-62.864525
7308.593750	-61.244572
7309.570312	-61.642052
7310.546875	-61.975285
7311.523438	-61.340538
7312.500000	-61.985218
7313.476562	-63.306454
7314.453125	-63.951252
7315.429688	-62.611256
7316.406250	-62.328636
7317.382812	-63.655796
7318.359375	-63.574787
7319.335938	-62.540325
7320.312500	-63.110954
7321.289062	-63.253101
7322.265625	-64.355148
7323.242188	-62.709728
7324.218750	-62.542915
7325.195312	-63.846935
7326.171875	-62.592983
7327.148438	-62.200314
7328.125000	-63.096935
7329.101562	-62.217663
7330.078125	-62.837769
7331.054688	-63.100464
7332.031250	-62.398880
7333.007812	-63.759781
7333.984375	-61.482738
7334.960938	-61.964821
7335.937500	-62.512577
7336.914062	-63.695290
7337.890625	-63.722111
7338.867188	-62.491798
7339.843750	-62.674351
7340.820312	-62.873352
7341.796875	-63.224354
7342.773438	-62.464458
7343.750000	-62.611027
7344.726562	-62.737331
7345.703125	-62.089581
7346.679688	-63.494221
7347.656250	-63.106258
7348.632812	-63.545086
7349.609375	-63.231487
7350.585938	-63.453648
7351.562500	-64.111961
7352.539062	-63.508961
7353.515625	-64.766853
7354.492188	-63.055019
7355.468750	-62.999233
7356.445312	-62.078972
7357.421875	-62.441856
7358.398438	-63.506531
7359.375000	-65.029243
7360.351562	-64.129570
7361.328125	-63.689247
7362.304688	-63.593990
7363.281250	-62.433380
7364.257812	-62.712715
7365.234375	-62.926212
7366.210938	-63.325230
7367.187500	-63.368172
7368.164062	-63.533455
7369.140625	-64.282722
7370.117188	-62.957882
7371.093750	-65.286659
7372.070312	-65.311111
7373.046875	-63.183060
7374.023438	-63.530190
7375.000000	-63.263165
7375.976562	-63.883678
7376.953125	-64.220306
7377.929688	-64.400253
7378.906250	-62.983822
7379.882812	-64.078117
7380.859375	-64.975555
7381.835938	-62.810459
7382.812500	-62.809795
7383.789062	-64.092949
7384.765625	-62.748356
7385.742188	-62.885071
7386.718750	-64.611649
7387.695312	-63.625874
7388.671875	-63.093224
7389.648438	-63.913280
7390.625000	-63.606281
7391.601562	-64.448753
7392.578125	-63.511021
7393.554688	-63.732578
7394.531250	-62.268803
7395.507812	-62.328915
7396.484375	-62.682365
7397.460938	-62.353737
7398.437500	-61.661011
7399.414062	-63.719303
7400.390625	-63.837753
7401.367188	-62.953106
7402.343750	-63.312901
7403.320312	-64.023575
7404.296875	-64.958427
7405.273438	-63.676228
7406.250000	-63.414047
7407.226562	-64.696991
7408.203125	-63.752186
7409.179688	-65.545670
7410.156250	-63.863152
7411.132812	-64.393623
7412.109375	-65.212341
7413.085938	-64.636589
7414.062500	-64.439980
7415.039062	-63.786152
7416.015625	-63.369980
7416.992188	-62.742249
7417.968750	-63.574570
7418.945312	-64.140778
7419.921875	-64.301849
7420.898438	-64.768776
7421.875000	-64.346558
7422.851562	-63.596142
7423.828125	-62.943352
7424.804688	-64.042488
7425.781250	-63.803238
7426.757812	-63.832561
7427.734375	-63.666431
7428.710938	-64.343880
7429.687500	-63.050373
7430.664062	-64.589088
7431.640625	-64.721588
7432.617188	-63.419796
7433.593750	-63.451263
7434.570312	-63.845074
7435.546875	-64.435226
7436.523438	-64.664375
7437.500000	-65.048401
7438.476562	-64.398445
7439.453125	-63.523399
7440.429688	-64.795280
7441.406250	-63.926327
7442.382812	-63.996582
7443.359375	-63.886204
7444.335938	-63.776833
7445.312500	-65.901245
7446.289062	-66.588821
7447.265625	-64.788177
7448.242188	-64.595139
7449.218750	-64.288368
7450.195312	-64.078583
7451.171875	-62.990849
7452.148438	-64.785141
7453.125000	-62.968754
7454.101562	-65.148743
7455.078125	-65.528923
7456.054688	-65.597191
7457.031250	-65.931595
7458.007812	-65.439079
7458.984375	-64.481339
7459.960938	-62.728432
7460.937500	-64.278893
7461.914062	-65.365265
7462.890625	-65.686073
7463.867188	-63.268738
7464.843750	-65.079048
7465.820312	-63.946678
7466.796875	-64.237602
7467.773438	-63.192909
7468.750000	-64.361908
7469.726562	-64.440475
7470.703125	-64.408966
7471.679688	-64.173347
7472.656250	-65.192390
7473.632812	-64.740997
7474.609375	-64.576149
7475.585938	-63.873474
7476.562500	-64.400726
7477.539062	-64.527397
7478.515625	-65.251358
7479.492188	-65.224838
7480.468750	-64.936493
7481.445312	-65.291191
7482.421875	-65.003990
7483.398438	-65.583679
7484.375000	-64.851433
7485.351562	-63.386341
7486.328125	-63.659317
7487.304688	-64.584412
7488.281250	-63.426727
7489.257812	-64.400185
7490.234375	-63.590015
7491.210938	-64.532379
7492.187500	-63.850857
7493.164062	-63.672230
7494.140625	-63.638290
7495.117188	-64.961990
7496.093750	-64.986115
7497.070312	-65.317772
7498.046875	-65.344452
7499.023438	-65.643349
7500.000000	-65.422630
7500.976562	-65.910072
7501.953125	-64.519539
7502.929688	-63.935101
7503.906250	-66.267670
7504.882812	-66.175797
7505.859375	-64.861481
7506.835938	-65.604301
7507.812500	-63.794674
7508.789062	-62.291283
7509.765625	-62.710617
7510.742188	-64.563499
7511.718750	-65.039948
7512.695312	-64.534813
7513.671875	-63.984264
7514.648438	-62.983791
7515.625000	-64.004593
7516.601562	-63.241486
7517.578125	-62.716084
7518.554688	-64.524750
7519.531250	-65.457085
7520.507812	-64.740326
7521.484375	-65.391350
7522.460938	-65.884995
7523.437500	-65.877975
7524.414062	-66.307625
7525.390625	-65.523064
7526.367188	-64.668388
7527.343750	-64.919899
7528.320312	-65.815155
7529.296875	-65.633720
7530.273438	-65.131767
7531.250000	-64.722473
7532.226562	-63.975166
7533.203125	-65.739006
7534.179688	-66.914391
7535.156250	-66.967499
7536.132812	-66.161301
7537.109375	-65.350372
7538.085938	-65.776299
7539.062500	-65.927536
7540.039062	-64.905655
7541.015625	-65.873833
7541.992188	-66.305450
7542.968750	-65.701698
7543.945312	-64.353348
7544.921875	-64.408325
7545.898438	-63.678459
7546.875000	-65.560341
7547.851562	-65.257957
7548.828125	-65.260406
7549.804688	-66.068634
7550.781250	-66.396820
7551.757812	-65.533241
7552.734375	-64.832718
7553.710938	-65.971451
7554.687500	-65.282677
7555.664062	-65.342018
7556.640625	-64.369247
7557.617188	-64.688278
7558.593750	-65.269577
7559.570312	-65.272270
7560.546875	-64.307701
7561.523438	-65.256821
7562.500000	-65.186264
7563.476562	-66.044067
7564.453125	-64.886330
7565.429688	-64.571991
7566.406250	-64.051491
7567.382812	-63.236099
7568.359375	-64.406174
7569.335938	-65.750198
7570.312500	-65.704803
7571.289062	-63.961132
7572.265625	-64.694534
7573.242188	-64.525314
7574.218750	-66.448441
7575.195312	-65.947250
7576.171875	-64.812439
7577.148438	-65.467735
7578.125000	-65.255814
7579.101562	-65.094353
7580.078125	-64.313461
7581.054688	-66.295174
7582.031250	-63.865181
7583.007812	-63.167610
7583.984375	-63.993999
7584.960938	-63.431683
7585.937500	-63.674301
7586.914062	-64.990463
7587.890625	-65.880249
7588.867188	-64.157928
7589.843750	-65.473465
7590.820312	-66.249069
7591.796875	-65.076759
7592.773438	-64.837997
7593.750000	-64.566010
7594.726562	-64.776169
7595.703125	-65.405098
7596.679688	-65.306442
7597.656250	-65.781273
7598.632812	-64.490738
7599.609375	-64.907433
7600.585938	-65.997566
7601.562500	-64.715477
7602.539062	-65.751343
7603.515625	-65.278389
7604.492188	-66.530548
7605.468750	-65.262009
7606.445312	-64.269882
7607.421875	-64.759010
7608.398438	-64.690956
7609.375000	-65.021263
7610.351562	-64.562927
7611.328125	-64.252800
7612.304688	-66.183441
7613.281250	-65.981384
7614.257812	-67.228165
7615.234375	-65.482231
7616.210938	-67.323509
7617.187500	-66.207100
7618.164062	-66.255524
7619.140625	-65.955933
7620.117188	-66.040955
7621.093750	-66.422256
7622.070312	-65.606514
7623.046875	-66.511093
7624.023438	-66.713890
7625.000000	-65.763153
7625.976562	-65.067001
7626.953125	-65.166489
7627.929688	-65.990913
7628.906250	-65.568924
7629.882812	-65.189178
7630.859375	-66.619492
7631.835938	-64.910873
7632.812500	-65.967392
7633.789062	-63.709637
7634.765625	-65.047318
7635.742188	-66.067261
7636.718750	-64.460777
7637.695312	-65.972359
7638.671875	-66.225395
7639.648438	-65.000809
7640.625000	-64.850677
7641.601562	-65.650261
7642.578125	-64.272705
7643.554688	-64.160530
7644.531250	-66.063431
7645.507812	-65.077332
7646.484375	-65.497978
7647.460938	-66.025703
7648.437500	-64.378242
7649.414062	-64.195877
7650.390625	-65.180420
7651.367188	-66.552177
7652.343750	-65.256058
7653.320312	-64.558113
7654.296875	-63.836636
7655.273438	-64.554596
7656.250000	-65.095901
7657.226562	-62.491779
7658.203125	-64.565491
7659.179688	-65.031631
7660.156250	-64.889168
7661.132812	-65.723114
7662.109375	-64.260696
7663.085938	-62.415504
7664.062500	-63.468418
7665.039062	-63.871796
7666.015625	-65.132599
7666.992188	-64.565475
7667.968750	-66.014717
7668.945312	-65.435883
7669.921875	-65.618004
7670.898438	-65.801460
7671.875000	-66.446396
7672.851562	-65.846283
7673.828125	-65.420830
7674.804688	-66.033531
7675.781250	-64.543602
7676.757812	-63.007309
7677.734375	-64.093857
7678.710938	-63.775772
7679.687500	-63.680252
7680.664062	-64.392662
7681.640625	-63.827503
7682.617188	-63.728157
7683.593750	-64.191330
7684.570312	-63.750935
7685.546875	-64.208603
7686.523438	-64.450027
7687.500000	-65.535561
7688.476562	-66.101631
7689.453125	-65.075333
7690.429688	-67.137505
7691.406250	-66.851944
7692.382812	-65.098267
7693.359375	-65.751846
7694.335938	-64.980736
7695.312500	-66.303734
7696.289062	-65.317261
7697.265625	-64.112144
7698.242188	-67.462692
7699.218750	-67.225899
7700.195312	-65.346893
7701.171875	-62.677456
7702.148438	-64.564285
7703.125000	-64.420898
7704.101562	-63.210690
7705.078125	-66.118172
7706.054688	-65.889877
7707.031250	-64.626480
7708.007812	-64.923355
7708.984375	-63.842678
7709.960938	-65.676628
7710.937500	-65.589149
7711.914062	-65.979279
7712.890625	-66.265762
7713.867188	-67.723434
7714.843750	-66.477943
7715.820312	-65.152779
7716.796875	-65.691872
7717.773438	-65.569534
7718.750000	-65.077888
7719.726562	-66.271049
7720.703125	-66.760193
7721.679688	-67.181267
7722.656250	-66.060036
7723.632812	-65.715118
7724.609375	-66.272545
7725.585938	-66.146156
7726.562500	-66.820206
7727.539062	-66.895447
7728.515625	-66.939369
7729.492188	-66.784401
7730.468750	-66.886452
7731.445312	-67.541588
7732.421875	-66.137177
7733.398438	-67.772575
7734.375000	-67.335777
7735.351562	-67.656113
7736.328125	-67.072548
7737.304688	-67.419655
7738.281250	-66.354385
7739.257812	-64.926132
7740.234375	-67.469780
7741.210938	-68.157249
7742.187500	-67.494316
7743.164062	-67.161652
7744.140625	-66.838997
7745.117188	-67.424088
7746.093750	-66.431870
7747.070312	-66.732391
7748.046875	-68.159966
7749.023438	-68.089050
7750.000000	-67.419991
7750.976562	-67.464264
7751.953125	-66.813080
7752.929688	-67.009590
7753.906250	-66.923882
7754.882812	-67.509735
7755.859375	-65.795601
7756.835938	-67.417236
7757.812500	-68.581268
7758.789062	-67.482536
7759.765625	-67.085899
7760.742188	-66.512001
7761.718750	-66.626221
7762.695312	-67.540199
7763.671875	-68.026985
7764.648438	-69.123581
7765.625000	-66.564964
7766.601562	-68.457970
7767.578125	-67.329796
7768.554688	-68.369133
7769.531250	-67.544708
7770.507812	-67.253998
7771.484375	-67.362297
7772.460938	-68.029144
7773.437500	-68.584953
7774.414062	-68.027313
7775.390625	-68.425644
7776.367188	-68.555237
7777.343750	-69.181175
7778.320312	-69.144020
7779.296875	-70.010963
7780.273438	-70.516953
7781.250000	-71.635880
7782.226562	-70.826462
7783.203125	-69.334557
7784.179688	-68.589050
7785.156250	-68.782173
7786.132812	-68.256645
7787.109375	-68.062233
7788.085938	-68.320358
7789.062500	-68.333412
7790.039062	-68.326096
7791.015625	-69.130722
7791.992188	-69.465454
7792.968750	-67.892899
7793.945312	-70.095718
7794.921875	-67.968040
7795.898438	-68.458755
7796.875000	-68.646957
7797.851562	-68.718735
7798.828125	-69.846436
7799.804688	-68.494629
7800.781250	-71.062073
7801.757812	-69.564819
7802.734375	-69.910477
7803.710938	-70.912056
7804.687500	-70.480835
7805.664062	-69.266792
7806.640625	-69.501457
7807.617188	-68.706650
7808.593750	-69.210152
7809.570312	-68.530975
7810.546875	-68.663208
7811.523438	-69.566223
7812.500000	-69.542999
7813.476562	-70.404099
7814.453125	-70.632172
7815.429688	-69.825508
7816.406250	-69.321426
7817.382812	-69.943703
7818.359375	-68.740997
7819.335938	-70.519485
7820.312500	-70.126373
7821.289062	-70.453255
7822.265625	-72.591225
7823.242188	-71.012169
7824.218750	-70.515709
7825.195312	-70.292931
7826.171875	-71.076668
7827.148438	-70.011879
7828.125000	-70.367409
7829.101562	-69.772629
7830.078125	-71.320129
7831.054688	-69.198029
7832.031250	-69.698265
7833.007812	-71.141991
7833.984375	-71.239159
7834.960938	-70.125572
7835.937500	-71.450806
7836.914062	-70.038391
7837.890625	-69.666382
7838.867188	-72.620544
7839.843750	-71.011742
7840.820312	-70.970291
7841.796875	-69.597542
7842.773438	-71.578453
7843.750000	-70.898750
7844.726562	-70.578369
7845.703125	-69.511703
7846.679688	-69.948990
7847.656250	-69.574120
7848.632812	-70.569778
7849.609375	-71.401131
7850.585938	-70.192924
7851.562500	-71.801735
7852.539062	-70.449837
7853.515625	-70.372849
7854.492188	-70.588539
7855.468750	-70.007515
7856.445312	-70.566620
7857.421875	-69.883286
7858.398438	-71.243568
7859.375000	-71.296989
7860.351562	-72.673981
7861.328125	-72.149124
7862.304688	-71.095238
7863.281250	-70.592873
7864.257812	-70.661804
7865.234375	-70.196869
7866.210938	-71.025856
7867.187500	-70.346123
7868.164062	-70.335152
7869.140625	-70.923996
7870.117188	-72.259209
7871.093750	-71.173981
7872.070312	-71.574036
7873.046875	-71.190346
7874.023438	-71.440254
7875.000000	-71.383080
7875.976562	-71.040451
7876.953125	-71.172478
7877.929688	-71.182732
7878.906250	-71.137833
7879.882812	-70.687836
7880.859375	-71.947136
7881.835938	-70.226440
7882.812500	-70.515541
7883.789062	-71.013817
7884.765625	-71.732491
7885.742188	-71.700569
7886.718750	-70.657204
7887.695312	-71.673264
7888.671875	-71.430977
7889.648438	-70.541672
7890.625000	-71.359856
7891.601562	-70.721367
7892.578125	-70.492218
7893.554688	-72.171425
7894.531250	-71.979561
7895.507812	-70.254883
7896.484375	-71.308624
7897.460938	-70.894211
7898.437500	-71.838394
7899.414062	-71.826431
7900.390625	-71.487617
7901.367188	-71.267212
7902.343750	-71.029045
7903.320312	-71.578377
7904.296875	-73.005409
7905.273438	-70.941010
7906.250000	-71.248917
7907.226562	-71.830223
7908.203125	-72.354965
7909.179688	-71.047600
7910.156250	-72.181007
7911.132812	-70.790924
7912.109375	-71.608284
7913.085938	-72.210938
7914.062500	-73.573090
7915.039062	-72.155205
7916.015625	-71.831062
7916.992188	-71.597015
7917.968750	-71.033447
7918.945312	-71.033386
7919.921875	-71.890411
7920.898438	-71.828033
7921.875000	-72.572807
7922.851562	-70.757385
7923.828125	-71.499733
7924.804688	-70.255379
7925.781250	-70.927155
7926.757812	-72.766045
7927.734375	-70.867271
7928.710938	-69.483643
7929.687500	-71.121452
7930.664062	-72.635933
7931.640625	-71.646744
7932.617188	-72.873230
7933.593750	-71.859886
7934.570312	-71.091797
7935.546875	-72.602684
7936.523438	-70.863251
7937.500000	-70.791252
7938.476562	-70.421867
7939.453125	-71.326279
7940.429688	-71.994560
7941.406250	-70.818176
7942.382812	-71.276672
7943.359375	-70.948418
7944.335938	-70.579887
7945.312500	-71.573395
7946.289062	-70.712784
7947.265625	-71.667961
7948.242188	-71.288574
7949.218750	-71.859329
7950.195312	-70.518570
7951.171875	-71.586197
7952.148438	-72.226036
7953.125000	-72.086266
7954.101562	-73.782539
7955.078125	-72.188744
7956.054688	-72.845413
7957.031250	-71.326584
7958.007812	-72.212372
7958.984375	-72.833778
7959.960938	-71.580780
7960.937500	-70.479630
7961.914062	-71.963036
7962.890625	-70.896065
7963.867188	-70.351852
7964.843750	-70.098541
7965.820312	-70.698647
7966.796875	-71.318802
7967.773438	-71.049828
7968.750000	-72.218430
7969.726562	-72.766418
7970.703125	-72.127258
7971.679688	-71.581619
7972.656250	-71.829567
7973.632812	-70.916557
7974.609375	-71.054703
7975.585938	-71.647697
7976.562500	-71.735687
7977.539062	-72.830841
7978.515625	-71.903259
7979.492188	-70.123466
7980.468750	-71.083115
7981.445312	-72.072365
7982.421875	-70.030914
7983.398438	-70.100594
7984.375000	-70.659775
7985.351562	-71.225723
7986.328125	-70.988411
7987.304688	-70.785355
7988.281250	-72.325127
7989.257812	-71.214783
7990.234375	-71.992142
7991.210938	-71.514931
7992.187500	-71.651474
7993.164062	-71.327751
7994.140625	-71.542831
7995.117188	-70.756638
7996.093750	-71.352196
7997.070312	-71.236786
7998.046875	-71.145409
7999.023438	-72.124260
