Frequency (Hz)	Level (dB)
0.976562	-71.879295
1.953125	-70.357315
2.929688	-72.592331
3.906250	-72.521614
4.882812	-71.694420
5.859375	-69.805534
6.835938	-71.096115
7.812500	-70.475441
8.789062	-69.857109
9.765625	-69.139000
10.742188	-66.912552
11.718750	-67.525589
12.695312	-65.997627
13.671875	-67.640427
14.648438	-66.493973
15.625000	-66.818398
16.601562	-66.406677
17.578125	-65.443230
18.554688	-63.713993
19.531250	-61.591995
20.507812	-55.435787
21.484375	-51.773426
22.460938	-49.529026
23.437500	-49.348160
24.414062	-52.725548
25.390625	-57.255604
26.367188	-59.848618
27.343750	-64.092232
28.320312	-64.572006
29.296875	-64.934616
30.273438	-65.730782
31.250000	-65.961151
32.226562	-63.919659
33.203125	-64.098755
34.179688	-65.644844
35.156250	-64.299110
36.132812	-64.724869
37.109375	-65.634155
38.085938	-64.608612
39.062500	-64.582878
40.039062	-63.997520
41.015625	-59.161320
41.992188	-53.050430
42.968750	-55.496262
43.945312	-55.017017
44.921875	-54.622845
45.898438	-52.212322
46.875000	-54.424244
47.851562	-58.375980
48.828125	-59.463867
49.804688	-60.054226
50.781250	-63.336941
51.757812	-63.917213
52.734375	-63.104584
53.710938	-64.444641
54.687500	-62.647015
55.664062	-64.825882
56.640625	-63.989658
57.617188	-64.186028
58.593750	-64.515839
59.570312	-65.221100
60.546875	-63.988979
61.523438	-62.221115
62.500000	-58.561913
63.476562	-58.022057
64.453125	-59.789433
65.429688	-58.885944
66.406250	-58.146374
67.382812	-58.146851
68.359375	-57.214924
69.335938	-56.057098
70.312500	-56.887909
71.289062	-58.785255
72.265625	-57.133331
73.242188	-60.579430
74.218750	-63.132275
75.195312	-64.907753
76.171875	-64.224701
77.148438	-63.644268
78.125000	-63.956032
79.101562	-64.019989
80.078125	-64.497467
81.054688	-63.891247
82.031250	-62.343037
83.007812	-60.613613
83.984375	-58.095543
84.960938	-59.891640
85.937500	-61.357117
86.914062	-59.457294
87.890625	-60.944359
88.867188	-61.025475
89.843750	-60.894173
90.820312	-57.770679
91.796875	-57.153336
92.773438	-58.702747
93.750000	-60.637356
94.726562	-58.516968
95.703125	-57.126629
96.679688	-58.570190
97.656250	-61.359409
98.632812	-63.319767
99.609375	-62.712864
100.585938	-62.997456
101.562500	-63.634609
102.539062	-61.995571
103.515625	-61.611374
104.492188	-60.969982
105.468750	-60.342056
106.445312	-59.817375
107.421875	-61.558895
108.398438	-59.989544
109.375000	-60.658127
110.351562	-61.926235
111.328125	-60.847569
112.304688	-60.111794
113.281250	-60.672249
114.257812	-59.358406
115.234375	-60.886253
116.210938	-61.506920
117.187500	-62.107151
118.164062	-61.667118
119.140625	-61.270336
120.117188	-60.776031
121.093750	-58.407246
122.070312	-61.694927
123.046875	-61.266380
124.023438	-59.344681
125.000000	-59.934879
125.976562	-61.383041
126.953125	-63.304073
127.929688	-62.265419
128.906250	-61.338657
129.882812	-61.913101
130.859375	-61.664684
131.835938	-61.402580
132.812500	-60.736168
133.789062	-62.512848
134.765625	-62.468410
135.742188	-60.344048
136.718750	-60.911713
137.695312	-62.642891
138.671875	-62.357704
139.648438	-61.897633
140.625000	-60.639984
141.601562	-62.021107
142.578125	-61.135166
143.554688	-61.540699
144.531250	-60.471077
145.507812	-59.315079
146.484375	-61.918671
147.460938	-61.588112
148.437500	-61.352303
149.414062	-60.366356
150.390625	-61.232113
151.367188	-60.008331
152.343750	-60.009895
153.320312	-61.430096
154.296875	-62.056755
155.273438	-61.352650
156.250000	-62.118870
157.226562	-62.439442
158.203125	-62.670338
159.179688	-61.188343
160.156250	-62.100304
161.132812	-61.220348
162.109375	-62.365753
163.085938	-61.903545
164.062500	-63.374630
165.039062	-59.292656
166.015625	-62.131332
166.992188	-61.829094
167.968750	-62.272362
168.945312	-62.139381
169.921875	-60.679073
170.898438	-60.878490
171.875000	-63.070389
172.851562	-62.149868
173.828125	-61.307125
174.804688	-61.597054
175.781250	-61.071205
176.757812	-60.937790
177.734375	-61.813839
178.710938	-62.051380
179.687500	-62.901493
180.664062	-62.663387
181.640625	-62.199127
182.617188	-63.264595
183.593750	-62.285305
184.570312	-62.637554
185.546875	-63.448196
186.523438	-60.984913
187.500000	-62.841213
188.476562	-60.998993
189.453125	-60.973900
190.429688	-62.189671
191.406250	-60.926079
192.382812	-61.987183
193.359375	-61.310272
194.335938	-60.675007
195.312500	-59.586594
196.289062	-61.197346
197.265625	-61.825275
198.242188	-60.285233
199.218750	-59.822903
200.195312	-61.590172
201.171875	-61.320442
202.148438	-60.425938
203.125000	-60.251907
204.101562	-61.821617
205.078125	-64.307831
206.054688	-64.306320
207.031250	-62.102146
208.007812	-60.872501
208.984375	-62.383923
209.960938	-62.140095
210.937500	-61.901119
211.914062	-61.910954
212.890625	-61.059494
213.867188	-60.755947
214.843750	-62.173229
215.820312	-61.221180
216.796875	-60.894432
217.773438	-62.444805
218.750000	-60.719147
219.726562	-61.057564
220.703125	-62.368046
221.679688	-62.553253
222.656250	-60.161579
223.632812	-61.527382
224.609375	-60.308037
225.585938	-59.441154
226.562500	-62.189240
227.539062	-60.634239
228.515625	-60.925598
229.492188	-61.794407
230.468750	-61.849648
231.445312	-62.711742
232.421875	-63.245125
233.398438	-61.603069
234.375000	-62.657692
235.351562	-61.808533
236.328125	-62.334553
237.304688	-61.109982
238.281250	-59.710480
239.257812	-60.394810
240.234375	-60.838200
241.210938	-63.254650
242.187500	-61.955006
243.164062	-63.264507
244.140625	-61.142441
245.117188	-62.308895
246.093750	-62.162281
247.070312	-60.994541
248.046875	-60.824024
249.023438	-62.160187
250.000000	-62.020290
250.976562	-62.948387
251.953125	-62.156338
252.929688	-62.414352
253.906250	-61.291245
254.882812	-61.139328
255.859375	-61.938099
256.835938	-62.617138
257.812500	-63.352787
258.789062	-61.886662
259.765625	-60.902763
260.742188	-60.142235
261.718750	-58.793877
262.695312	-59.429504
263.671875	-61.970444
264.648438	-62.033367
265.625000	-59.846802
266.601562	-60.123379
267.578125	-62.340729
268.554688	-61.861481
269.531250	-61.490181
270.507812	-61.033226
271.484375	-61.743404
272.460938	-61.563969
273.437500	-58.297031
274.414062	-58.477451
275.390625	-59.803963
276.367188	-62.000420
277.343750	-62.133636
278.320312	-60.554409
279.296875	-60.434887
280.273438	-62.017372
281.250000	-61.649364
282.226562	-61.357658
283.203125	-62.264503
284.179688	-60.731449
285.156250	-62.170151
286.132812	-62.348465
287.109375	-62.023407
288.085938	-62.455875
289.062500	-62.388107
290.039062	-62.737267
291.015625	-62.307995
291.992188	-60.793800
292.968750	-60.181087
293.945312	-59.839962
294.921875	-61.322285
295.898438	-61.941299
296.875000	-61.293987
297.851562	-61.069351
298.828125	-61.088863
299.804688	-61.042042
300.781250	-61.420471
301.757812	-61.288128
302.734375	-61.715633
303.710938	-62.386078
304.687500	-61.202545
305.664062	-61.273891
306.640625	-61.523190
307.617188	-62.701241
308.593750	-60.803001
309.570312	-62.235916
310.546875	-62.219368
311.523438	-61.289238
312.500000	-61.756073
313.476562	-61.163795
314.453125	-61.556179
315.429688	-63.145599
316.406250	-61.885952
317.382812	-61.072495
318.359375	-62.482998
319.335938	-61.187157
320.312500	-59.625061
321.289062	-61.457428
322.265625	-61.612339
323.242188	-60.364456
324.218750	-61.428642
325.195312	-60.138954
326.171875	-61.866283
327.148438	-60.636311
328.125000	-60.530880
329.101562	-61.578655
330.078125	-61.477478
331.054688	-61.518459
332.031250	-62.686176
333.007812	-60.991379
333.984375	-61.079643
334.960938	-62.570629
335.937500	-61.642555
336.914062	-62.327736
337.890625	-63.011971
338.867188	-63.253391
339.843750	-62.335495
340.820312	-62.092529
341.796875	-62.136623
342.773438	-61.563862
343.750000	-60.958195
344.726562	-61.194042
345.703125	-60.627224
346.679688	-61.698341
347.656250	-61.043633
348.632812	-58.767513
349.609375	-59.482147
350.585938	-60.543114
351.562500	-61.509777
352.539062	-60.890110
353.515625	-60.851818
354.492188	-61.751492
355.468750	-61.245274
356.445312	-62.629551
357.421875	-61.020054
358.398438	-60.431885
359.375000	-62.261795
360.351562	-62.562443
361.328125	-61.923031
362.304688	-61.472595
363.281250	-62.299515
364.257812	-62.527016
365.234375	-62.589321
366.210938	-61.090870
367.187500	-61.853622
368.164062	-62.750740
369.140625	-61.360744
370.117188	-60.729286
371.093750	-60.389973
372.070312	-59.841343
373.046875	-60.437805
374.023438	-61.230179
375.000000	-62.660900
375.976562	-61.430824
376.953125	-61.732864
377.929688	-61.721943
378.906250	-61.440598
379.882812	-60.867828
380.859375	-62.792606
381.835938	-61.608097
382.812500	-62.734631
383.789062	-62.949490
384.765625	-61.387730
385.742188	-62.057419
386.718750	-63.038509
387.695312	-62.003181
388.671875	-64.012672
389.648438	-62.778336
390.625000	-61.414097
391.601562	-62.143520
392.578125	-61.695145
393.554688	-60.451710
394.531250	-59.926773
395.507812	-59.523842
396.484375	-60.416584
397.460938	-61.679523
398.437500	-62.544025
399.414062	-62.192104
400.390625	-61.622032
401.367188	-61.154789
402.343750	-62.923927
403.320312	-62.548450
404.296875	-62.931824
405.273438	-62.263462
406.250000	-62.726868
407.226562	-62.982117
408.203125	-61.369328
409.179688	-62.129154
410.156250	-61.042015
411.132812	-61.623028
412.109375	-61.680431
413.085938	-62.018471
414.062500	-61.522404
415.039062	-62.286808
416.015625	-60.517593
416.992188	-60.098583
417.968750	-62.087307
418.945312	-60.344154
419.921875	-60.657993
420.898438	-60.840710
421.875000	-61.882973
422.851562	-61.339939
423.828125	-60.920536
424.804688	-62.162792
425.781250	-62.025253
426.757812	-62.449574
427.734375	-61.933529
428.710938	-62.100216
429.687500	-62.159698
430.664062	-62.510002
431.640625	-62.603310
432.617188	-61.584499
433.593750	-62.545631
434.570312	-63.050568
435.546875	-62.212307
436.523438	-63.337162
437.500000	-59.671303
438.476562	-60.006809
439.453125	-61.197025
440.429688	-60.607800
441.406250	-60.306877
442.382812	-59.569515
443.359375	-60.328491
444.335938	-60.037689
445.312500	-60.354668
446.289062	-60.904678
447.265625	-61.393375
448.242188	-61.151482
449.218750	-62.442081
450.195312	-63.125427
451.171875	-60.630943
452.148438	-60.671448
453.125000	-64.118248
454.101562	-62.313606
455.078125	-60.877403
456.054688	-59.970894
457.031250	-61.041927
458.007812	-60.624454
458.984375	-60.717846
459.960938	-61.206429
460.937500	-62.503193
461.914062	-61.212395
462.890625	-61.223423
463.867188	-61.294395
464.843750	-60.174191
465.820312	-61.641159
466.796875	-60.460423
467.773438	-61.961758
468.750000	-60.838348
469.726562	-61.162056
470.703125	-62.315079
471.679688	-62.006874
472.656250	-60.199249
473.632812	-59.316528
474.609375	-62.585011
475.585938	-61.332802
476.562500	-60.121204
477.539062	-60.146770
478.515625	-61.977470
479.492188	-60.040298
480.468750	-60.491123
481.445312	-61.353039
482.421875	-62.295715
483.398438	-61.624557
484.375000	-62.653732
485.351562	-60.886658
486.328125	-62.735008
487.304688	-60.643047
488.281250	-60.998459
489.257812	-58.879345
490.234375	-60.378895
491.210938	-60.853294
492.187500	-60.863335
493.164062	-60.917553
494.140625	-61.842876
495.117188	-61.371338
496.093750	-61.663906
497.070312	-60.951584
498.046875	-61.150970
499.023438	-61.311783
500.000000	-59.497467
500.976562	-59.964344
501.953125	-59.769394
502.929688	-62.113720
503.906250	-61.074036
504.882812	-60.869286
505.859375	-60.754856
506.835938	-59.909924
507.812500	-60.858192
508.789062	-61.726562
509.765625	-60.878956
510.742188	-61.506184
511.718750	-60.934982
512.695312	-61.702351
513.671875	-62.135235
514.648438	-60.521412
515.625000	-61.945194
516.601562	-62.156170
517.578125	-62.085476
518.554688	-62.736126
519.531250	-61.375492
520.507812	-62.338963
521.484375	-63.502995
522.460938	-61.766289
523.437500	-61.212364
524.414062	-61.510086
525.390625	-61.728806
526.367188	-63.496010
527.343750	-61.519875
528.320312	-60.958542
529.296875	-60.588249
530.273438	-61.590702
531.250000	-59.573364
532.226562	-61.835094
533.203125	-61.289108
534.179688	-61.505283
535.156250	-61.554604
536.132812	-61.600609
537.109375	-61.724209
538.085938	-61.583927
539.062500	-61.399899
540.039062	-60.933594
541.015625	-61.014912
541.992188	-61.077522
542.968750	-60.860958
543.945312	-62.760826
544.921875	-62.739277
545.898438	-62.451176
546.875000	-63.085514
547.851562	-62.333351
548.828125	-62.360332
549.804688	-61.969135
550.781250	-61.885098
551.757812	-61.578136
552.734375	-63.219715
553.710938	-62.149853
554.687500	-60.877491
555.664062	-60.207561
556.640625	-60.568420
557.617188	-61.932762
558.593750	-62.182362
559.570312	-63.207123
560.546875	-60.920006
561.523438	-61.705986
562.500000	-61.982704
563.476562	-61.220581
564.453125	-62.280624
565.429688	-61.768627
566.406250	-63.172447
567.382812	-63.256561
568.359375	-61.260357
569.335938	-61.994324
570.312500	-62.097904
571.289062	-61.482460
572.265625	-59.363132
573.242188	-61.207230
574.218750	-62.219990
575.195312	-61.421829
576.171875	-62.279865
577.148438	-63.110256
578.125000	-62.629383
579.101562	-63.798241
580.078125	-60.846859
581.054688	-61.305965
582.031250	-61.741489
583.007812	-61.150303
583.984375	-61.475086
584.960938	-61.195187
585.937500	-61.497238
586.914062	-62.023216
587.890625	-60.933708
588.867188	-62.474594
589.843750	-61.629753
590.820312	-62.827908
591.796875	-62.115425
592.773438	-61.536766
593.750000	-62.010944
594.726562	-62.235611
595.703125	-62.370426
596.679688	-61.316780
597.656250	-61.725620
598.632812	-61.665348
599.609375	-62.582230
600.585938	-62.850815
601.562500	-63.574043
602.539062	-62.150536
603.515625	-61.119743
604.492188	-61.899181
605.468750	-61.127934
606.445312	-60.955708
607.421875	-61.601753
608.398438	-60.433723
609.375000	-60.568977
610.351562	-61.081360
611.328125	-61.644855
612.304688	-61.837566
613.281250	-62.238762
614.257812	-60.681107
615.234375	-60.900555
616.210938	-61.037731
617.187500	-60.017048
618.164062	-63.183979
619.140625	-61.789066
620.117188	-63.278416
621.093750	-62.902660
622.070312	-61.341457
623.046875	-63.994350
624.023438	-62.537216
625.000000	-62.362415
625.976562	-62.534042
626.953125	-61.885197
627.929688	-61.852585
628.906250	-62.387356
629.882812	-63.666573
630.859375	-63.338383
631.835938	-61.486908
632.812500	-60.148705
633.789062	-61.429451
634.765625	-60.651062
635.742188	-62.714657
636.718750	-61.716156
637.695312	-63.156010
638.671875	-62.099606
639.648438	-62.403931
640.625000	-61.219723
641.601562	-62.113361
642.578125	-61.650372
643.554688	-61.909000
644.531250	-61.863834
645.507812	-63.939209
646.484375	-63.013302
647.460938	-62.039829
648.437500	-62.309166
649.414062	-63.058701
650.390625	-62.354225
651.367188	-62.282822
652.343750	-61.924541
653.320312	-61.662716
654.296875	-60.769241
655.273438	-60.130199
656.250000	-60.275284
657.226562	-61.062454
658.203125	-59.425251
659.179688	-59.623947
660.156250	-60.595314
661.132812	-61.321873
662.109375	-62.436634
663.085938	-62.641514
664.062500	-61.692303
665.039062	-62.764652
666.015625	-61.208618
666.992188	-61.683254
667.968750	-61.754913
668.945312	-62.238834
669.921875	-61.865620
670.898438	-63.245956
671.875000	-61.589417
672.851562	-62.010353
673.828125	-62.897636
674.804688	-62.615005
675.781250	-62.471981
676.757812	-60.588463
677.734375	-61.595013
678.710938	-62.733356
679.687500	-61.323765
680.664062	-61.384598
681.640625	-61.337536
682.617188	-61.631615
683.593750	-62.398960
684.570312	-61.438976
685.546875	-62.560104
686.523438	-61.508904
687.500000	-60.695362
688.476562	-61.301834
689.453125	-62.401611
690.429688	-61.980152
691.406250	-61.843422
692.382812	-62.396854
693.359375	-63.695263
694.335938	-62.093571
695.312500	-61.364548
696.289062	-62.786232
697.265625	-62.014835
698.242188	-59.869232
699.218750	-61.380966
700.195312	-62.303955
701.171875	-61.053230
702.148438	-61.053360
703.125000	-60.294987
704.101562	-61.633698
705.078125	-60.222755
706.054688	-61.902847
707.031250	-61.250053
708.007812	-60.985268
708.984375	-63.089420
709.960938	-61.042007
710.937500	-60.696613
711.914062	-60.461395
712.890625	-62.740990
713.867188	-61.446522
714.843750	-62.325878
715.820312	-61.937004
716.796875	-62.374802
717.773438	-61.117767
718.750000	-61.560894
719.726562	-61.931633
720.703125	-60.963848
721.679688	-62.033733
722.656250	-62.398746
723.632812	-61.943371
724.609375	-61.815014
725.585938	-60.376850
726.562500	-61.811134
727.539062	-62.585602
728.515625	-61.874577
729.492188	-60.787376
730.468750	-60.583942
731.445312	-60.744003
732.421875	-61.487045
733.398438	-61.762150
734.375000	-61.900215
735.351562	-59.540989
736.328125	-58.820366
737.304688	-60.242401
738.281250	-60.025532
739.257812	-60.021091
740.234375	-60.104683
741.210938	-60.855648
742.187500	-60.456974
743.164062	-60.483154
744.140625	-61.251965
745.117188	-61.065296
746.093750	-61.051193
747.070312	-61.797798
748.046875	-61.465542
749.023438	-60.652119
750.000000	-59.986401
750.976562	-59.830509
751.953125	-61.648830
752.929688	-59.350628
753.906250	-59.255661
754.882812	-59.535172
755.859375	-59.300240
756.835938	-58.435566
757.812500	-60.141411
758.789062	-59.591305
759.765625	-59.799328
760.742188	-60.504871
761.718750	-61.038094
762.695312	-60.759647
763.671875	-61.357315
764.648438	-60.658806
765.625000	-61.333366
766.601562	-62.011036
767.578125	-60.741726
768.554688	-61.537495
769.531250	-61.598793
770.507812	-60.755211
771.484375	-60.849796
772.460938	-60.768456
773.437500	-59.694202
774.414062	-61.354240
775.390625	-61.387402
776.367188	-60.903881
777.343750	-59.245647
778.320312	-60.037331
779.296875	-59.714664
780.273438	-58.850670
781.250000	-59.924583
782.226562	-58.631027
783.203125	-60.203857
784.179688	-61.426945
785.156250	-61.026642
786.132812	-59.926186
787.109375	-59.496719
788.085938	-60.955540
789.062500	-60.606003
790.039062	-62.524281
791.015625	-60.721630
791.992188	-60.816727
792.968750	-61.039421
793.945312	-60.836136
794.921875	-61.297184
795.898438	-58.989231
796.875000	-59.953751
797.851562	-60.423187
798.828125	-59.668953
799.804688	-59.811127
800.781250	-58.938343
801.757812	-58.642582
802.734375	-58.947800
803.710938	-57.713226
804.687500	-59.979252
805.664062	-59.919689
806.640625	-60.538334
807.617188	-59.687199
808.593750	-60.660702
809.570312	-61.129997
810.546875	-59.807297
811.523438	-59.467140
812.500000	-61.018318
813.476562	-60.651031
814.453125	-61.842720
815.429688	-60.982056
816.406250	-61.060307
817.382812	-60.731026
818.359375	-60.364452
819.335938	-60.824783
820.312500	-59.810600
821.289062	-59.700836
822.265625	-60.209690
823.242188	-61.953083
824.218750	-62.444832
825.195312	-58.539928
826.171875	-59.061169
827.148438	-59.576591
828.125000	-61.579597
829.101562	-61.250832
830.078125	-61.844246
831.054688	-60.883495
832.031250	-60.896175
833.007812	-62.142315
833.984375	-61.933216
834.960938	-60.076424
835.937500	-61.407879
836.914062	-59.755943
837.890625	-60.635113
838.867188	-60.387001
839.843750	-60.776985
840.820312	-61.019772
841.796875	-60.306049
842.773438	-59.636879
843.750000	-60.730515
844.726562	-59.425480
845.703125	-60.707359
846.679688	-59.359669
847.656250	-59.193207
848.632812	-58.024860
849.609375	-60.095680
850.585938	-61.151230
851.562500	-59.797459
852.539062	-59.118217
853.515625	-59.814323
854.492188	-58.773621
855.468750	-60.325073
856.445312	-59.638252
857.421875	-61.634083
858.398438	-61.135094
859.375000	-60.027538
860.351562	-61.509789
861.328125	-61.477474
862.304688	-59.932808
863.281250	-60.092026
864.257812	-59.957458
865.234375	-60.577946
866.210938	-60.609348
867.187500	-59.708416
868.164062	-59.090851
869.140625	-60.776939
870.117188	-59.573677
871.093750	-59.873714
872.070312	-59.551968
873.046875	-59.544868
874.023438	-60.340019
875.000000	-59.798119
875.976562	-61.155396
876.953125	-60.692574
877.929688	-59.832462
878.906250	-60.304604
879.882812	-60.956596
880.859375	-59.613529
881.835938	-60.003719
882.812500	-59.928272
883.789062	-60.037964
884.765625	-62.196022
885.742188	-60.539188
886.718750	-60.452564
887.695312	-61.331135
888.671875	-59.178814
889.648438	-61.100426
890.625000	-59.814358
891.601562	-60.414455
892.578125	-60.307381
893.554688	-60.949905
894.531250	-60.276653
895.507812	-59.347893
896.484375	-59.596771
897.460938	-60.337673
898.437500	-60.095406
899.414062	-59.388508
900.390625	-59.492420
901.367188	-60.367050
902.343750	-60.940052
903.320312	-60.003479
904.296875	-62.220333
905.273438	-59.922211
906.250000	-60.425835
907.226562	-60.569851
908.203125	-59.367565
909.179688	-61.617073
910.156250	-60.471207
911.132812	-60.324852
912.109375	-61.161598
913.085938	-59.969154
914.062500	-60.126411
915.039062	-61.471233
916.015625	-59.584881
916.992188	-61.276615
917.968750	-60.652882
918.945312	-59.247009
919.921875	-60.346569
920.898438	-59.791172
921.875000	-59.461269
922.851562	-59.061661
923.828125	-60.602131
924.804688	-59.445328
925.781250	-60.317265
926.757812	-59.886536
927.734375	-60.522987
928.710938	-60.168262
929.687500	-60.267593
930.664062	-60.624260
931.640625	-59.914124
932.617188	-61.219154
933.593750	-59.296074
934.570312	-60.388004
935.546875	-61.088886
936.523438	-61.356304
937.500000	-61.060226
938.476562	-61.233234
939.453125	-61.650379
940.429688	-60.720642
941.406250	-61.192318
942.382812	-60.846107
943.359375	-59.341045
944.335938	-58.316898
945.312500	-58.117363
946.289062	-59.396400
947.265625	-59.200508
948.242188	-59.501896
949.218750	-59.844360
950.195312	-60.390484
951.171875	-61.636436
952.148438	-61.100834
953.125000	-60.355263
954.101562	-59.370018
955.078125	-62.040329
956.054688	-59.883827
957.031250	-61.922997
958.007812	-61.067307
958.984375	-60.833469
959.960938	-61.137169
960.937500	-61.762119
961.914062	-61.828079
962.890625	-61.316460
963.867188	-61.204159
964.843750	-60.864738
965.820312	-62.038158
966.796875	-61.413960
967.773438	-60.273781
968.750000	-59.001286
969.726562	-60.663448
970.703125	-60.974285
971.679688	-60.381767
972.656250	-59.448044
973.632812	-59.528450
974.609375	-58.881733
975.585938	-59.517452
976.562500	-61.024822
977.539062	-60.316113
978.515625	-59.898422
979.492188	-60.484562
980.468750	-61.723328
981.445312	-59.501621
982.421875	-59.439995
983.398438	-59.417862
984.375000	-58.691395
985.351562	-60.863293
986.328125	-61.314911
987.304688	-61.225967
988.281250	-59.897007
989.257812	-60.737957
990.234375	-61.156227
991.210938	-60.893078
992.187500	-60.697750
993.164062	-59.974258
994.140625	-61.169659
995.117188	-60.514004
996.093750	-59.912827
997.070312	-60.282795
998.046875	-59.814022
999.023438	-61.043579
1000.000000	-60.229355
1000.976562	-62.084766
1001.953125	-61.829208
1002.929688	-60.147854
1003.906250	-60.642872
1004.882812	-59.831886
1005.859375	-60.786453
1006.835938	-60.793816
1007.812500	-59.435467
1008.789062	-59.381531
1009.765625	-61.172203
1010.742188	-59.432060
1011.718750	-60.743443
1012.695312	-60.207539
1013.671875	-60.183128
1014.648438	-60.744041
1015.625000	-61.057877
1016.601562	-60.609978
1017.578125	-59.687469
1018.554688	-59.711266
1019.531250	-59.984211
1020.507812	-60.123283
1021.484375	-63.156925
1022.460938	-61.007412
1023.437500	-59.116032
1024.414062	-59.498085
1025.390625	-60.750179
1026.367188	-60.011322
1027.343750	-60.808674
1028.320312	-59.995762
1029.296875	-59.905773
1030.273438	-60.755825
1031.250000	-61.250992
1032.226562	-60.078426
1033.203125	-61.438076
1034.179688	-60.861546
1035.156250	-60.234642
1036.132812	-60.877384
1037.109375	-60.847496
1038.085938	-60.903454
1039.062500	-60.716282
1040.039062	-62.261059
1041.015625	-61.382797
1041.992188	-60.667713
1042.968750	-60.015354
1043.945312	-60.760082
1044.921875	-59.117561
1045.898438	-58.792927
1046.875000	-59.940323
1047.851562	-59.348259
1048.828125	-60.024143
1049.804688	-59.759686
1050.781250	-61.494667
1051.757812	-60.606941
1052.734375	-60.191166
1053.710938	-61.114040
1054.687500	-61.122734
1055.664062	-61.372410
1056.640625	-59.900166
1057.617188	-60.473377
1058.593750	-61.059193
1059.570312	-60.558533
1060.546875	-60.502132
1061.523438	-60.747158
1062.500000	-61.165085
1063.476562	-61.330990
1064.453125	-61.191910
1065.429688	-59.938126
1066.406250	-59.031475
1067.382812	-61.210297
1068.359375	-61.267178
1069.335938	-59.425785
1070.312500	-61.744083
1071.289062	-59.458088
1072.265625	-59.579636
1073.242188	-59.495922
1074.218750	-60.576557
1075.195312	-59.316204
1076.171875	-59.580326
1077.148438	-60.076118
1078.125000	-59.748386
1079.101562	-61.019375
1080.078125	-60.402744
1081.054688	-59.131939
1082.031250	-61.561291
1083.007812	-60.026646
1083.984375	-60.746372
1084.960938	-59.539413
1085.937500	-61.101704
1086.914062	-60.234409
1087.890625	-58.940678
1088.867188	-58.603786
1089.843750	-58.562206
1090.820312	-59.426342
1091.796875	-60.409569
1092.773438	-61.134922
1093.750000	-59.220066
1094.726562	-58.876869
1095.703125	-59.301758
1096.679688	-59.598576
1097.656250	-60.067291
1098.632812	-60.379925
1099.609375	-61.867844
1100.585938	-61.133034
1101.562500	-59.859779
1102.539062	-60.245026
1103.515625	-60.736809
1104.492188	-59.154869
1105.468750	-58.696262
1106.445312	-60.585201
1107.421875	-60.627113
1108.398438	-59.277256
1109.375000	-59.138634
1110.351562	-59.674728
1111.328125	-59.922714
1112.304688	-59.079380
1113.281250	-60.259907
1114.257812	-58.976875
1115.234375	-59.729599
1116.210938	-60.552536
1117.187500	-60.441769
1118.164062	-60.756847
1119.140625	-60.748272
1120.117188	-61.041416
1121.093750	-59.918976
1122.070312	-61.662148
1123.046875	-61.459087
1124.023438	-60.937248
1125.000000	-61.689064
1125.976562	-59.101986
1126.953125	-59.953590
1127.929688	-59.679039
1128.906250	-60.050667
1129.882812	-59.687572
1130.859375	-59.049084
1131.835938	-60.732082
1132.812500	-60.592354
1133.789062	-59.548092
1134.765625	-59.153236
1135.742188	-59.960220
1136.718750	-60.238491
1137.695312	-58.711273
1138.671875	-59.009071
1139.648438	-60.131401
1140.625000	-58.200024
1141.601562	-59.122910
1142.578125	-59.711163
1143.554688	-59.913017
1144.531250	-60.739792
1145.507812	-59.429260
1146.484375	-60.437622
1147.460938	-60.410831
1148.437500	-58.832993
1149.414062	-59.042835
1150.390625	-60.225147
1151.367188	-59.199158
1152.343750	-61.087868
1153.320312	-60.700649
1154.296875	-61.075104
1155.273438	-60.735798
1156.250000	-60.246761
1157.226562	-60.163326
1158.203125	-61.074131
1159.179688	-59.229961
1160.156250	-59.976631
1161.132812	-60.344543
1162.109375	-61.389519
1163.085938	-60.351280
1164.062500	-59.528313
1165.039062	-60.492432
1166.015625	-60.248867
1166.992188	-59.801865
1167.968750	-61.275253
1168.945312	-61.761272
1169.921875	-60.667999
1170.898438	-60.326267
1171.875000	-59.512295
1172.851562	-59.425014
1173.828125	-59.774387
1174.804688	-59.091255
1175.781250	-59.366734
1176.757812	-59.919746
1177.734375	-60.390717
1178.710938	-59.154812
1179.687500	-59.656292
1180.664062	-60.316730
1181.640625	-60.477673
1182.617188	-58.164501
1183.593750	-60.440662
1184.570312	-59.055042
1185.546875	-58.082603
1186.523438	-59.409012
1187.500000	-57.543339
1188.476562	-58.838921
1189.453125	-59.710526
1190.429688	-59.072716
1191.406250	-59.682240
1192.382812	-59.493431
1193.359375	-59.125942
1194.335938	-58.994621
1195.312500	-59.724934
1196.289062	-59.151577
1197.265625	-58.359196
1198.242188	-57.855930
1199.218750	-59.395893
1200.195312	-58.544662
1201.171875	-58.106136
1202.148438	-58.305317
1203.125000	-58.869526
1204.101562	-58.551552
1205.078125	-57.729015
1206.054688	-58.112286
1207.031250	-58.471725
1208.007812	-58.091690
1208.984375	-57.410561
1209.960938	-58.717758
1210.937500	-58.043941
1211.914062	-58.349186
1212.890625	-56.658871
1213.867188	-58.474941
1214.843750	-59.129726
1215.820312	-58.828674
1216.796875	-60.673203
1217.773438	-59.155075
1218.750000	-58.808876
1219.726562	-56.562187
1220.703125	-57.803127
1221.679688	-57.794121
1222.656250	-57.340157
1223.632812	-57.186241
1224.609375	-57.875591
1225.585938	-57.595345
1226.562500	-57.421890
1227.539062	-57.697414
1228.515625	-56.756359
1229.492188	-58.548843
1230.468750	-57.976971
1231.445312	-59.486679
1232.421875	-56.437180
1233.398438	-58.475796
1234.375000	-56.464745
1235.351562	-57.119022
1236.328125	-56.734570
1237.304688	-56.969765
1238.281250	-58.362087
1239.257812	-57.705879
1240.234375	-57.241333
1241.210938	-56.232380
1242.187500	-56.866638
1243.164062	-56.911201
1244.140625	-55.807705
1245.117188	-55.702618
1246.093750	-57.360252
1247.070312	-57.497219
1248.046875	-56.609428
1249.023438	-55.971802
1250.000000	-57.270618
1250.976562	-56.275951
1251.953125	-57.924400
1252.929688	-58.609486
1253.906250	-58.703613
1254.882812	-58.468330
1255.859375	-56.676926
1256.835938	-58.719067
1257.812500	-57.838650
1258.789062	-54.959778
1259.765625	-56.097134
1260.742188	-54.745548
1261.718750	-56.763020
1262.695312	-56.758926
1263.671875	-55.231216
1264.648438	-55.538288
1265.625000	-56.110741
1266.601562	-55.415989
1267.578125	-56.216484
1268.554688	-57.205555
1269.531250	-56.144390
1270.507812	-57.423458
1271.484375	-55.682556
1272.460938	-55.945488
1273.437500	-57.329762
1274.414062	-56.553272
1275.390625	-57.333008
1276.367188	-57.220661
1277.343750	-56.647678
1278.320312	-57.328461
1279.296875	-55.462494
1280.273438	-56.234428
1281.250000	-55.281620
1282.226562	-54.932571
1283.203125	-56.735767
1284.179688	-57.187134
1285.156250	-54.427132
1286.132812	-57.819302
1287.109375	-55.465725
1288.085938	-54.336941
1289.062500	-54.774193
1290.039062	-56.290756
1291.015625	-55.592426
1291.992188	-56.522289
1292.968750	-55.749054
1293.945312	-57.731579
1294.921875	-55.895382
1295.898438	-56.567261
1296.875000	-56.593163
1297.851562	-57.232693
1298.828125	-57.170086
1299.804688	-57.148899
1300.781250	-55.691715
1301.757812	-56.625824
1302.734375	-54.716908
1303.710938	-54.966640
1304.687500	-53.137806
1305.664062	-53.956001
1306.640625	-55.190071
1307.617188	-54.597862
1308.593750	-57.261711
1309.570312	-55.054726
1310.546875	-54.100262
1311.523438	-55.809097
1312.500000	-55.549923
1313.476562	-57.382374
1314.453125	-57.197174
1315.429688	-57.558376
1316.406250	-57.651928
1317.382812	-57.439869
1318.359375	-57.667866
1319.335938	-56.443398
1320.312500	-56.387558
1321.289062	-56.968067
1322.265625	-56.001400
1323.242188	-56.631371
1324.218750	-54.832390
1325.195312	-55.494900
1326.171875	-55.190659
1327.148438	-56.541836
1328.125000	-54.728428
1329.101562	-55.035896
1330.078125	-55.158871
1331.054688	-56.353733
1332.031250	-56.037933
1333.007812	-54.496586
1333.984375	-54.599205
1334.960938	-55.032867
1335.937500	-56.016815
1336.914062	-55.110638
1337.890625	-55.613575
1338.867188	-55.260681
1339.843750	-55.790855
1340.820312	-55.387486
1341.796875	-55.715248
1342.773438	-55.390781
1343.750000	-55.726078
1344.726562	-56.259403
1345.703125	-55.876106
1346.679688	-56.799488
1347.656250	-56.133701
1348.632812	-56.998447
1349.609375	-55.943932
1350.585938	-55.272488
1351.562500	-55.829517
1352.539062	-55.505627
1353.515625	-56.933910
1354.492188	-55.250252
1355.468750	-55.495152
1356.445312	-56.187431
1357.421875	-55.106754
1358.398438	-56.386963
1359.375000	-55.344330
1360.351562	-58.182556
1361.328125	-56.456593
1362.304688	-55.451752
1363.281250	-56.359940
1364.257812	-54.911983
1365.234375	-55.951015
1366.210938	-55.409866
1367.187500	-56.622639
1368.164062	-56.194057
1369.140625	-56.205334
1370.117188	-56.368946
1371.093750	-56.325096
1372.070312	-56.008831
1373.046875	-53.922153
1374.023438	-56.191471
1375.000000	-56.171566
1375.976562	-54.428345
1376.953125	-53.827915
1377.929688	-54.430225
1378.906250	-53.866920
1379.882812	-53.982033
1380.859375	-56.434521
1381.835938	-55.062130
1382.812500	-55.802670
1383.789062	-55.187260
1384.765625	-55.234070
1385.742188	-55.216145
1386.718750	-55.753036
1387.695312	-54.752460
1388.671875	-54.790340
1389.648438	-55.293564
1390.625000	-55.472183
1391.601562	-55.681252
1392.578125	-57.156109
1393.554688	-56.085846
1394.531250	-54.396267
1395.507812	-56.363968
1396.484375	-56.130825
1397.460938	-55.190964
1398.437500	-55.307587
1399.414062	-54.898247
1400.390625	-56.315987
1401.367188	-55.850945
1402.343750	-57.289154
1403.320312	-55.837975
1404.296875	-58.005089
1405.273438	-56.086712
1406.250000	-55.439320
1407.226562	-55.639942
1408.203125	-54.626408
1409.179688	-55.883923
1410.156250	-57.285568
1411.132812	-55.144547
1412.109375	-55.459503
1413.085938	-56.914539
1414.062500	-55.895046
1415.039062	-56.901497
1416.015625	-56.276665
1416.992188	-56.877842
1417.968750	-56.095657
1418.945312	-54.444862
1419.921875	-54.459755
1420.898438	-55.738380
1421.875000	-55.498451
1422.851562	-55.084961
1423.828125	-55.590054
1424.804688	-56.395832
1425.781250	-55.957790
1426.757812	-55.139606
1427.734375	-54.394253
1428.710938	-55.369495
1429.687500	-57.135437
1430.664062	-56.547115
1431.640625	-55.233303
1432.617188	-56.414017
1433.593750	-54.582310
1434.570312	-56.149632
1435.546875	-55.730247
1436.523438	-56.952671
1437.500000	-57.666508
1438.476562	-56.563644
1439.453125	-57.032845
1440.429688	-55.304363
1441.406250	-55.590000
1442.382812	-55.915703
1443.359375	-55.753883
1444.335938	-54.863235
1445.312500	-54.753693
1446.289062	-55.706921
1447.265625	-55.907104
1448.242188	-56.254982
1449.218750	-55.218754
1450.195312	-56.886135
1451.171875	-56.872723
1452.148438	-56.990860
1453.125000	-56.623116
1454.101562	-56.248005
1455.078125	-55.061417
1456.054688	-56.807735
1457.031250	-56.884125
1458.007812	-56.230984
1458.984375	-56.321808
1459.960938	-56.593151
1460.937500	-57.693882
1461.914062	-57.483017
1462.890625	-56.784199
1463.867188	-56.545017
1464.843750	-56.994884
1465.820312	-56.027309
1466.796875	-56.622265
1467.773438	-55.100670
1468.750000	-55.301586
1469.726562	-55.323490
1470.703125	-57.024780
1471.679688	-57.765751
1472.656250	-57.608349
1473.632812	-56.372967
1474.609375	-56.881557
1475.585938	-57.367302
1476.562500	-56.151276
1477.539062	-57.836353
1478.515625	-56.588123
1479.492188	-57.605339
1480.468750	-57.772957
1481.445312	-57.212212
1482.421875	-57.123642
1483.398438	-55.820320
1484.375000	-55.650394
1485.351562	-57.657757
1486.328125	-58.029598
1487.304688	-57.139896
1488.281250	-56.186882
1489.257812	-55.573971
1490.234375	-55.525475
1491.210938	-55.003433
1492.187500	-57.461483
1493.164062	-55.790596
1494.140625	-56.670071
1495.117188	-56.471672
1496.093750	-57.354244
1497.070312	-56.498123
1498.046875	-55.914021
1499.023438	-56.083706
1500.000000	-58.158581
1500.976562	-57.032948
1501.953125	-56.679131
1502.929688	-55.945507
1503.906250	-57.591843
1504.882812	-57.222744
1505.859375	-54.845169
1506.835938	-57.117199
1507.812500	-58.048161
1508.789062	-56.920128
1509.765625	-56.721439
1510.742188	-54.668385
1511.718750	-55.074768
1512.695312	-54.667732
1513.671875	-55.355213
1514.648438	-57.025486
1515.625000	-57.017620
1516.601562	-56.261299
1517.578125	-56.345612
1518.554688	-56.924004
1519.531250	-56.937855
1520.507812	-56.883850
1521.484375	-55.334148
1522.460938	-55.916153
1523.437500	-55.544514
1524.414062	-55.943985
1525.390625	-55.948456
1526.367188	-58.676315
1527.343750	-55.651604
1528.320312	-56.424225
1529.296875	-57.072735
1530.273438	-57.389019
1531.250000	-56.470325
1532.226562	-57.190407
1533.203125	-57.293720
1534.179688	-57.561367
1535.156250	-55.977772
1536.132812	-56.350929
1537.109375	-57.174221
1538.085938	-57.167179
1539.062500	-57.777523
1540.039062	-56.832047
1541.015625	-55.919434
1541.992188	-58.016876
1542.968750	-57.022041
1543.945312	-56.812473
1544.921875	-57.515530
1545.898438	-57.880856
1546.875000	-57.148872
1547.851562	-57.462643
1548.828125	-56.944870
1549.804688	-58.708839
1550.781250	-57.189896
1551.757812	-56.672215
1552.734375	-55.829426
1553.710938	-55.287170
1554.687500	-56.832981
1555.664062	-56.935486
1556.640625	-56.703159
1557.617188	-55.343014
1558.593750	-56.629772
1559.570312	-57.793179
1560.546875	-58.299446
1561.523438	-57.031113
1562.500000	-57.979519
1563.476562	-57.669117
1564.453125	-57.186584
1565.429688	-57.217667
1566.406250	-54.610905
1567.382812	-53.404594
1568.359375	-54.645695
1569.335938	-56.390182
1570.312500	-55.717022
1571.289062	-56.717899
1572.265625	-56.530254
1573.242188	-56.145370
1574.218750	-56.645004
1575.195312	-56.843109
1576.171875	-56.458027
1577.148438	-56.902020
1578.125000	-57.543118
1579.101562	-55.665428
1580.078125	-57.242226
1581.054688	-55.963779
1582.031250	-56.281960
1583.007812	-56.512852
1583.984375	-59.007217
1584.960938	-56.988102
1585.937500	-56.496239
1586.914062	-56.727272
1587.890625	-56.508423
1588.867188	-56.107555
1589.843750	-55.777069
1590.820312	-55.251549
1591.796875	-55.886150
1592.773438	-55.758778
1593.750000	-56.694332
1594.726562	-56.997070
1595.703125	-56.839016
1596.679688	-56.248501
1597.656250	-55.071884
1598.632812	-56.525726
1599.609375	-56.478054
1600.585938	-54.955013
1601.562500	-55.379734
1602.539062	-56.545834
1603.515625	-57.406990
1604.492188	-56.908325
1605.468750	-56.095009
1606.445312	-57.152287
1607.421875	-55.763508
1608.398438	-56.746971
1609.375000	-57.756229
1610.351562	-53.760612
1611.328125	-56.885887
1612.304688	-55.542454
1613.281250	-54.927437
1614.257812	-55.412407
1615.234375	-55.450352
1616.210938	-55.843800
1617.187500	-55.639816
1618.164062	-54.846069
1619.140625	-53.813061
1620.117188	-54.864758
1621.093750	-55.930382
1622.070312	-55.184685
1623.046875	-54.966316
1624.023438	-54.760994
1625.000000	-55.038658
1625.976562	-56.646324
1626.953125	-56.726254
1627.929688	-55.724194
1628.906250	-56.182411
1629.882812	-57.010410
1630.859375	-56.486122
1631.835938	-53.917839
1632.812500	-54.177109
1633.789062	-54.603413
1634.765625	-57.149120
1635.742188	-54.522018
1636.718750	-56.197388
1637.695312	-55.916962
1638.671875	-54.789066
1639.648438	-54.194077
1640.625000	-55.335632
1641.601562	-54.897072
1642.578125	-52.788349
1643.554688	-55.683983
1644.531250	-53.252380
1645.507812	-53.572239
1646.484375	-53.882404
1647.460938	-54.675270
1648.437500	-55.422729
1649.414062	-53.781166
1650.390625	-55.311279
1651.367188	-56.285835
1652.343750	-54.124477
1653.320312	-52.445103
1654.296875	-51.721058
1655.273438	-55.559177
1656.250000	-53.610771
1657.226562	-52.272789
1658.203125	-52.997635
1659.179688	-52.893707
1660.156250	-52.450600
1661.132812	-54.221722
1662.109375	-54.273579
1663.085938	-53.353546
1664.062500	-52.551712
1665.039062	-52.999271
1666.015625	-54.757633
1666.992188	-55.289215
1667.968750	-53.293392
1668.945312	-54.996033
1669.921875	-53.801968
1670.898438	-53.545597
1671.875000	-55.810120
1672.851562	-53.896126
1673.828125	-51.799011
1674.804688	-50.046028
1675.781250	-51.415192
1676.757812	-52.763729
1677.734375	-51.763046
1678.710938	-51.657631
1679.687500	-51.669930
1680.664062	-51.854057
1681.640625	-51.578499
1682.617188	-53.800892
1683.593750	-51.796780
1684.570312	-51.506184
1685.546875	-52.072338
1686.523438	-52.417309
1687.500000	-52.224571
1688.476562	-51.147072
1689.453125	-52.246609
1690.429688	-52.175167
1691.406250	-52.147011
1692.382812	-52.179047
1693.359375	-53.325279
1694.335938	-52.814583
1695.312500	-51.438690
1696.289062	-51.180012
1697.265625	-54.501408
1698.242188	-52.769001
1699.218750	-51.462418
1700.195312	-53.456352
1701.171875	-52.454872
1702.148438	-50.945251
1703.125000	-51.893433
1704.101562	-51.472572
1705.078125	-50.776257
1706.054688	-52.551128
1707.031250	-49.671146
1708.007812	-52.334816
1708.984375	-50.897465
1709.960938	-50.393627
1710.937500	-51.377701
1711.914062	-50.750229
1712.890625	-51.140709
1713.867188	-52.241001
1714.843750	-52.108051
1715.820312	-50.125778
1716.796875	-52.325039
1717.773438	-53.708668
1718.750000	-51.038059
1719.726562	-50.142208
1720.703125	-52.632751
1721.679688	-51.025307
1722.656250	-52.725521
1723.632812	-50.538212
1724.609375	-53.172047
1725.585938	-52.202595
1726.562500	-52.219769
1727.539062	-51.998806
1728.515625	-51.785507
1729.492188	-51.608608
1730.468750	-51.107182
1731.445312	-51.298443
1732.421875	-51.387527
1733.398438	-50.709225
1734.375000	-50.016003
1735.351562	-50.241806
1736.328125	-49.210480
1737.304688	-51.452427
1738.281250	-51.082947
1739.257812	-48.998001
1740.234375	-50.376099
1741.210938	-51.550564
1742.187500	-48.597378
1743.164062	-48.205677
1744.140625	-48.754639
1745.117188	-50.475395
1746.093750	-47.569412
1747.070312	-47.861813
1748.046875	-48.756741
1749.023438	-49.887825
1750.000000	-49.094246
1750.976562	-49.840599
1751.953125	-49.676006
1752.929688	-51.150139
1753.906250	-51.084171
1754.882812	-49.628971
1755.859375	-47.894703
1756.835938	-49.846375
1757.812500	-48.332943
1758.789062	-49.484722
1759.765625	-48.914291
1760.742188	-47.726479
1761.718750	-48.341633
1762.695312	-49.558838
1763.671875	-48.674904
1764.648438	-48.557003
1765.625000	-47.821022
1766.601562	-48.631557
1767.578125	-49.253113
1768.554688	-48.752243
1769.531250	-46.483295
1770.507812	-48.767731
1771.484375	-49.034210
1772.460938	-49.187832
1773.437500	-48.663071
1774.414062	-48.039768
1775.390625	-48.785397
1776.367188	-49.223686
1777.343750	-49.814735
1778.320312	-47.203098
1779.296875	-46.911522
1780.273438	-48.090546
1781.250000	-48.714611
1782.226562	-49.844803
1783.203125	-49.838478
1784.179688	-48.328037
1785.156250	-49.142941
1786.132812	-50.262424
1787.109375	-47.353577
1788.085938	-50.152248
1789.062500	-46.519505
1790.039062	-49.074749
1791.015625	-50.115673
1791.992188	-50.075588
1792.968750	-48.583771
1793.945312	-49.014721
1794.921875	-47.991917
1795.898438	-49.256279
1796.875000	-48.515778
1797.851562	-47.975174
1798.828125	-47.127548
1799.804688	-46.595184
1800.781250	-47.641666
1801.757812	-46.366146
1802.734375	-47.872593
1803.710938	-47.698837
1804.687500	-47.217983
1805.664062	-47.288204
1806.640625	-46.433243
1807.617188	-45.406212
1808.593750	-46.331093
1809.570312	-45.869781
1810.546875	-46.477390
1811.523438	-47.222404
1812.500000	-46.178104
1813.476562	-46.587383
1814.453125	-46.964775
1815.429688	-47.179028
1816.406250	-46.103970
1817.382812	-46.233109
1818.359375	-47.180653
1819.335938	-46.123005
1820.312500	-46.122463
1821.289062	-43.779888
1822.265625	-44.294014
1823.242188	-44.676647
1824.218750	-47.584625
1825.195312	-46.100838
1826.171875	-44.836311
1827.148438	-45.750256
1828.125000	-45.500614
1829.101562	-44.785664
1830.078125	-45.123322
1831.054688	-46.542885
1832.031250	-46.988213
1833.007812	-45.671047
1833.984375	-45.399704
1834.960938	-47.045300
1835.937500	-45.930840
1836.914062	-46.750034
1837.890625	-45.467010
1838.867188	-45.803062
1839.843750	-46.608345
1840.820312	-46.656162
1841.796875	-47.674633
1842.773438	-45.325008
1843.750000	-45.543457
1844.726562	-45.816349
1845.703125	-46.464951
1846.679688	-46.124577
1847.656250	-46.445377
1848.632812	-45.172146
1849.609375	-45.206211
1850.585938	-45.716869
1851.562500	-45.641144
1852.539062	-45.436703
1853.515625	-46.408688
1854.492188	-45.959446
1855.468750	-45.089520
1856.445312	-46.464226
1857.421875	-46.230835
1858.398438	-45.802879
1859.375000	-47.802658
1860.351562	-45.729881
1861.328125	-45.956787
1862.304688	-47.097157
1863.281250	-45.423759
1864.257812	-45.797108
1865.234375	-46.109489
1866.210938	-45.643719
1867.187500	-45.489578
1868.164062	-45.189198
1869.140625	-44.771702
1870.117188	-44.711929
1871.093750	-45.494186
1872.070312	-43.962002
1873.046875	-48.085960
1874.023438	-47.422428
1875.000000	-44.763092
1875.976562	-45.106976
1876.953125	-45.536064
1877.929688	-47.575424
1878.906250	-45.448719
1879.882812	-46.249714
1880.859375	-46.125267
1881.835938	-47.824383
1882.812500	-46.717731
1883.789062	-46.146446
1884.765625	-47.219414
1885.742188	-46.981384
1886.718750	-46.867443
1887.695312	-48.120060
1888.671875	-48.472820
1889.648438	-46.796314
1890.625000	-46.328533
1891.601562	-47.980385
1892.578125	-48.378750
1893.554688	-47.581234
1894.531250	-48.558907
1895.507812	-47.961418
1896.484375	-48.931362
1897.460938	-48.397629
1898.437500	-48.396255
1899.414062	-48.469082
1900.390625	-47.687195
1901.367188	-47.834251
1902.343750	-47.455986
1903.320312	-46.754311
1904.296875	-47.580986
1905.273438	-48.105564
1906.250000	-48.122501
1907.226562	-48.948753
1908.203125	-49.305923
1909.179688	-48.926178
1910.156250	-49.194359
1911.132812	-48.466221
1912.109375	-47.877232
1913.085938	-49.013916
1914.062500	-48.829052
1915.039062	-48.960716
1916.015625	-48.671196
1916.992188	-48.418232
1917.968750	-49.954418
1918.945312	-50.511929
1919.921875	-49.518986
1920.898438	-48.722919
1921.875000	-48.470711
1922.851562	-50.852337
1923.828125	-48.437634
1924.804688	-49.519535
1925.781250	-48.520683
1926.757812	-49.159874
1927.734375	-48.831665
1928.710938	-48.991669
1929.687500	-49.138794
1930.664062	-49.395279
1931.640625	-48.529774
1932.617188	-49.875103
1933.593750	-49.003197
1934.570312	-49.176216
1935.546875	-49.624077
1936.523438	-50.316818
1937.500000	-49.852036
1938.476562	-50.436199
1939.453125	-51.809494
1940.429688	-52.647629
1941.406250	-49.926140
1942.382812	-50.565796
1943.359375	-50.430382
1944.335938	-50.653240
1945.312500	-52.144882
1946.289062	-52.068363
1947.265625	-49.853516
1948.242188	-49.126854
1949.218750	-50.589272
1950.195312	-50.560051
1951.171875	-50.276886
1952.148438	-49.645008
1953.125000	-49.586102
1954.101562	-49.262455
1955.078125	-49.959770
1956.054688	-50.624672
1957.031250	-49.507912
1958.007812	-49.604626
1958.984375	-49.826771
1959.960938	-50.930328
1960.937500	-51.749756
1961.914062	-52.082825
1962.890625	-52.440113
1963.867188	-51.987751
1964.843750	-51.399342
1965.820312	-51.710388
1966.796875	-51.693169
1967.773438	-53.088078
1968.750000	-51.103703
1969.726562	-51.629467
1970.703125	-51.640961
1971.679688	-51.265022
1972.656250	-50.212639
1973.632812	-50.000843
1974.609375	-50.849171
1975.585938	-48.933605
1976.562500	-48.512794
1977.539062	-50.270569
1978.515625	-51.499367
1979.492188	-49.361916
1980.468750	-50.013813
1981.445312	-50.301815
1982.421875	-50.340706
1983.398438	-51.119072
1984.375000	-51.315865
1985.351562	-51.467278
1986.328125	-51.764957
1987.304688	-52.248592
1988.281250	-51.600464
1989.257812	-51.267883
1990.234375	-50.576561
1991.210938	-51.312695
1992.187500	-52.201630
1993.164062	-51.661034
1994.140625	-51.221710
1995.117188	-50.223610
1996.093750	-50.637634
1997.070312	-49.577175
1998.046875	-49.876141
1999.023438	-50.135128
2000.000000	-48.794094
2000.976562	-50.021599
2001.953125	-51.543026
2002.929688	-51.847343
2003.906250	-50.688614
2004.882812	-51.478039
2005.859375	-51.038929
2006.835938	-52.173275
2007.812500	-52.758717
2008.789062	-53.149189
2009.765625	-51.322556
2010.742188	-52.372997
2011.718750	-51.026840
2012.695312	-50.141701
2013.671875	-50.733662
2014.648438	-53.199352
2015.625000	-52.038071
2016.601562	-51.104950
2017.578125	-49.331120
2018.554688	-49.886616
2019.531250	-50.016422
2020.507812	-48.977997
2021.484375	-49.243763
2022.460938	-48.985023
2023.437500	-49.765049
2024.414062	-50.839676
2025.390625	-49.576786
2026.367188	-48.758492
2027.343750	-49.927528
2028.320312	-50.802525
2029.296875	-49.007286
2030.273438	-50.649029
2031.250000	-51.266727
2032.226562	-51.903896
2033.203125	-51.412945
2034.179688	-50.743744
2035.156250	-49.438297
2036.132812	-50.092163
2037.109375	-49.395817
2038.085938	-48.953861
2039.062500	-49.356113
2040.039062	-50.511429
2041.015625	-48.329983
2041.992188	-49.701286
2042.968750	-48.800533
2043.945312	-47.833710
2044.921875	-46.909851
2045.898438	-48.164288
2046.875000	-47.298363
2047.851562	-46.654659
2048.828125	-47.340214
2049.804688	-48.144707
2050.781250	-48.105133
2051.757812	-48.259560
2052.734375	-49.294098
2053.710938	-48.574970
2054.687500	-48.433681
2055.664062	-48.693356
2056.640625	-47.752361
2057.617188	-47.175632
2058.593750	-47.408394
2059.570312	-47.092377
2060.546875	-47.059383
2061.523438	-48.314442
2062.500000	-48.766495
2063.476562	-48.456898
2064.453125	-49.452663
2065.429688	-48.223171
2066.406250	-47.402294
2067.382812	-47.980190
2068.359375	-46.899990
2069.335938	-46.414806
2070.312500	-47.645149
2071.289062	-46.357487
2072.265625	-45.378620
2073.242188	-45.679089
2074.218750	-46.446365
2075.195312	-46.313129
2076.171875	-45.573029
2077.148438	-45.086254
2078.125000	-46.755295
2079.101562	-45.643391
2080.078125	-44.485401
2081.054688	-46.876774
2082.031250	-48.476780
2083.007812	-48.501476
2083.984375	-46.915104
2084.960938	-47.389526
2085.937500	-47.365135
2086.914062	-47.265522
2087.890625	-48.305077
2088.867188	-48.235554
2089.843750	-45.470051
2090.820312	-45.533745
2091.796875	-48.438183
2092.773438	-47.326324
2093.750000	-44.705101
2094.726562	-43.032425
2095.703125	-44.684128
2096.679688	-45.516327
2097.656250	-44.155842
2098.632812	-43.845242
2099.609375	-44.851444
2100.585938	-44.557079
2101.562500	-46.573154
2102.539062	-45.006889
2103.515625	-47.170876
2104.492188	-47.530090
2105.468750	-45.596523
2106.445312	-47.121273
2107.421875	-48.611671
2108.398438	-47.664982
2109.375000	-45.690651
2110.351562	-46.669018
2111.328125	-45.926479
2112.304688	-44.635132
2113.281250	-44.892380
2114.257812	-44.575054
2115.234375	-43.369278
2116.210938	-42.634563
2117.187500	-42.003887
2118.164062	-41.823387
2119.140625	-42.743977
2120.117188	-43.302994
2121.093750	-41.954910
2122.070312	-40.821800
2123.046875	-44.912743
2124.023438	-43.662193
2125.000000	-42.600338
2125.976562	-44.086533
2126.953125	-41.854607
2127.929688	-45.338509
2128.906250	-46.761375
2129.882812	-43.525105
2130.859375	-41.630062
2131.835938	-42.293568
2132.812500	-44.183372
2133.789062	-42.910679
2134.765625	-41.564339
2135.742188	-42.107414
2136.718750	-39.241047
2137.695312	-39.402599
2138.671875	-39.902813
2139.648438	-39.436520
2140.625000	-39.393673
2141.601562	-37.855541
2142.578125	-38.293602
2143.554688	-37.531269
2144.531250	-42.184853
2145.507812	-41.394123
2146.484375	-40.676033
2147.460938	-40.212223
2148.437500	-40.948322
2149.414062	-41.948280
2150.390625	-43.027836
2151.367188	-40.622753
2152.343750	-38.909702
2153.320312	-38.891693
2154.296875	-43.143311
2155.273438	-41.415340
2156.250000	-39.550522
2157.226562	-37.959805
2158.203125	-38.446472
2159.179688	-35.934063
2160.156250	-37.543804
2161.132812	-35.620537
2162.109375	-35.994534
2163.085938	-35.379150
2164.062500	-35.651012
2165.039062	-36.709229
2166.015625	-38.140484
2166.992188	-37.053017
2167.968750	-39.610390
2168.945312	-37.258072
2169.921875	-37.939522
2170.898438	-39.864674
2171.875000	-39.485680
2172.851562	-37.661209
2173.828125	-37.084858
2174.804688	-36.686947
2175.781250	-37.454437
2176.757812	-39.849083
2177.734375	-37.415386
2178.710938	-36.206978
2179.687500	-36.261818
2180.664062	-34.212559
2181.640625	-34.650051
2182.617188	-33.786911
2183.593750	-32.556316
2184.570312	-32.365391
2185.546875	-30.267660
2186.523438	-33.350586
2187.500000	-33.917683
2188.476562	-31.955755
2189.453125	-34.225677
2190.429688	-34.260647
2191.406250	-32.818104
2192.382812	-37.639904
2193.359375	-33.851215
2194.335938	-32.997437
2195.312500	-33.885830
2196.289062	-33.871460
2197.265625	-35.076538
2198.242188	-35.572765
2199.218750	-33.877220
2200.195312	-32.371780
2201.171875	-33.693550
2202.148438	-32.895203
2203.125000	-31.053247
2204.101562	-33.459930
2205.078125	-30.084814
2206.054688	-30.142357
2207.031250	-33.496147
2208.007812	-31.554630
2208.984375	-31.695074
2209.960938	-32.080704
2210.937500	-33.363197
2211.914062	-31.202213
2212.890625	-31.796947
2213.867188	-33.269428
2214.843750	-34.469189
2215.820312	-32.837856
2216.796875	-31.619692
2217.773438	-33.387669
2218.750000	-30.907230
2219.726562	-30.688438
2220.703125	-31.045336
2221.679688	-31.863167
2222.656250	-33.383926
2223.632812	-29.806944
2224.609375	-30.283587
2225.585938	-31.099403
2226.562500	-28.922392
2227.539062	-29.262987
2228.515625	-30.494368
2229.492188	-31.874336
2230.468750	-28.704300
2231.445312	-29.431812
2232.421875	-29.970478
2233.398438	-31.841080
2234.375000	-31.356089
2235.351562	-30.668465
2236.328125	-30.818342
2237.304688	-30.098921
2238.281250	-31.714567
2239.257812	-33.464157
2240.234375	-31.033463
2241.210938	-28.678886
2242.187500	-30.320910
2243.164062	-28.853935
2244.140625	-28.186829
2245.117188	-29.423306
2246.093750	-28.293690
2247.070312	-28.481180
2248.046875	-30.406446
2249.023438	-30.227577
2250.000000	-29.435402
2250.976562	-27.470493
2251.953125	-28.963320
2252.929688	-26.533705
2253.906250	-27.280304
2254.882812	-28.016562
2255.859375	-28.782238
2256.835938	-29.331457
2257.812500	-28.832947
2258.789062	-29.542192
2259.765625	-30.041929
2260.742188	-28.912960
2261.718750	-29.398214
2262.695312	-29.365253
2263.671875	-28.580198
2264.648438	-29.245846
2265.625000	-29.748154
2266.601562	-28.759314
2267.578125	-27.188179
2268.554688	-26.864889
2269.531250	-26.648039
2270.507812	-29.193579
2271.484375	-28.529863
2272.460938	-31.373560
2273.437500	-28.272606
2274.414062	-27.498291
2275.390625	-26.872887
2276.367188	-27.881044
2277.343750	-29.076746
2278.320312	-29.042166
2279.296875	-29.217735
2280.273438	-29.008400
2281.250000	-27.754101
2282.226562	-29.687504
2283.203125	-29.693914
2284.179688	-29.431932
2285.156250	-28.972151
2286.132812	-28.901266
2287.109375	-28.145906
2288.085938	-27.410856
2289.062500	-26.909576
2290.039062	-26.857895
2291.015625	-27.685684
2291.992188	-27.648039
2292.968750	-28.973639
2293.945312	-26.970058
2294.921875	-27.258087
2295.898438	-27.278820
2296.875000	-26.213058
2297.851562	-24.442244
2298.828125	-23.377716
2299.804688	-25.159981
2300.781250	-25.516264
2301.757812	-26.646215
2302.734375	-25.598349
2303.710938	-26.711334
2304.687500	-25.140438
2305.664062	-27.358980
2306.640625	-27.263212
2307.617188	-26.329241
2308.593750	-27.006817
2309.570312	-23.949421
2310.546875	-23.530920
2311.523438	-25.367363
2312.500000	-26.811836
2313.476562	-27.145155
2314.453125	-27.604509
2315.429688	-26.829767
2316.406250	-25.871723
2317.382812	-27.000086
2318.359375	-27.361179
2319.335938	-26.513290
2320.312500	-25.801794
2321.289062	-26.053110
2322.265625	-26.976349
2323.242188	-27.927456
2324.218750	-27.131533
2325.195312	-27.409693
2326.171875	-27.501162
2327.148438	-27.269232
2328.125000	-25.515305
2329.101562	-27.511332
2330.078125	-27.621246
2331.054688	-25.774210
2332.031250	-26.254299
2333.007812	-25.262035
2333.984375	-25.341282
2334.960938	-25.787514
2335.937500	-26.262091
2336.914062	-26.692032
2337.890625	-27.743818
2338.867188	-27.071556
2339.843750	-26.657640
2340.820312	-27.728638
2341.796875	-27.761658
2342.773438	-26.433790
2343.750000	-27.189857
2344.726562	-26.145828
2345.703125	-26.608019
2346.679688	-27.511921
2347.656250	-26.058645
2348.632812	-26.017651
2349.609375	-26.293255
2350.585938	-26.393257
2351.562500	-26.699995
2352.539062	-26.711838
2353.515625	-26.800091
2354.492188	-25.787760
2355.468750	-25.378462
2356.445312	-26.120377
2357.421875	-27.983398
2358.398438	-28.277704
2359.375000	-28.287516
2360.351562	-28.731403
2361.328125	-28.198490
2362.304688	-28.371805
2363.281250	-28.862036
2364.257812	-28.590717
2365.234375	-27.894873
2366.210938	-28.849813
2367.187500	-28.017059
2368.164062	-28.041027
2369.140625	-28.927549
2370.117188	-28.731009
2371.093750	-28.922964
2372.070312	-29.437674
2373.046875	-29.489256
2374.023438	-28.874195
2375.000000	-30.115387
2375.976562	-28.883392
2376.953125	-28.786917
2377.929688	-30.000698
2378.906250	-28.991734
2379.882812	-29.025377
2380.859375	-30.470819
2381.835938	-30.871975
2382.812500	-30.747213
2383.789062	-30.684547
2384.765625	-28.987152
2385.742188	-29.751471
2386.718750	-29.622599
2387.695312	-29.375631
2388.671875	-30.763674
2389.648438	-30.025623
2390.625000	-30.468386
2391.601562	-30.811991
2392.578125	-30.893667
2393.554688	-28.814089
2394.531250	-29.830751
2395.507812	-30.625868
2396.484375	-30.316301
2397.460938	-29.724964
2398.437500	-30.173824
2399.414062	-31.741661
2400.390625	-30.715963
2401.367188	-31.330553
2402.343750	-31.043455
2403.320312	-29.079639
2404.296875	-29.699745
2405.273438	-30.447367
2406.250000	-30.032469
2407.226562	-31.330273
2408.203125	-33.082695
2409.179688	-31.171799
2410.156250	-31.182110
2411.132812	-30.326885
2412.109375	-30.294533
2413.085938	-29.878872
2414.062500	-31.066914
2415.039062	-30.139994
2416.015625	-30.199440
2416.992188	-31.400494
2417.968750	-31.580948
2418.945312	-30.655691
2419.921875	-32.081192
2420.898438	-31.513752
2421.875000	-30.245386
2422.851562	-29.854149
2423.828125	-30.138857
2424.804688	-29.980013
2425.781250	-30.793701
2426.757812	-31.121302
2427.734375	-31.112429
2428.710938	-30.443178
2429.687500	-31.297819
2430.664062	-31.541616
2431.640625	-30.780474
2432.617188	-30.528782
2433.593750	-31.198530
2434.570312	-30.875193
2435.546875	-30.774443
2436.523438	-31.078131
2437.500000	-31.053514
2438.476562	-30.910212
2439.453125	-30.831024
2440.429688	-31.556459
2441.406250	-31.723099
2442.382812	-31.124722
2443.359375	-31.182764
2444.335938	-30.898712
2445.312500	-31.183620
2446.289062	-30.920338
2447.265625	-30.331116
2448.242188	-30.298883
2449.218750	-31.494446
2450.195312	-32.731972
2451.171875	-31.904371
2452.148438	-30.228102
2453.125000	-31.479897
2454.101562	-31.109556
2455.078125	-30.785044
2456.054688	-30.891119
2457.031250	-31.539568
2458.007812	-30.549141
2458.984375	-31.297270
2459.960938	-32.205986
2460.937500	-32.694374
2461.914062	-30.421783
2462.890625	-31.219509
2463.867188	-31.221970
2464.843750	-31.170454
2465.820312	-30.769402
2466.796875	-30.152290
2467.773438	-30.910856
2468.750000	-32.451374
2469.726562	-31.597359
2470.703125	-30.994995
2471.679688	-30.838284
2472.656250	-29.501562
2473.632812	-29.691029
2474.609375	-31.664639
2475.585938	-29.964968
2476.562500	-31.498137
2477.539062	-32.283661
2478.515625	-31.538898
2479.492188	-31.942011
2480.468750	-32.244850
2481.445312	-31.796803
2482.421875	-30.669109
2483.398438	-29.962656
2484.375000	-32.878384
2485.351562	-29.973009
2486.328125	-32.445778
2487.304688	-31.642981
2488.281250	-31.408298
2489.257812	-31.928038
2490.234375	-31.803226
2491.210938	-30.947536
2492.187500	-30.061394
2493.164062	-28.900751
2494.140625	-30.958656
2495.117188	-30.275690
2496.093750	-31.092478
2497.070312	-31.590914
2498.046875	-32.722298
2499.023438	-30.809305
2500.000000	-30.422564
2500.976562	-29.860405
2501.953125	-31.012054
2502.929688	-33.042648
2503.906250	-31.687767
2504.882812	-31.030968
2505.859375	-31.472704
2506.835938	-30.480536
2507.812500	-32.057735
2508.789062	-31.827681
2509.765625	-30.637339
2510.742188	-30.105127
2511.718750	-31.097397
2512.695312	-31.337559
2513.671875	-31.452753
2514.648438	-32.117744
2515.625000	-30.327076
2516.601562	-29.374146
2517.578125	-29.744226
2518.554688	-28.370750
2519.531250	-29.813908
2520.507812	-30.501518
2521.484375	-31.805286
2522.460938	-32.333603
2523.437500	-32.794327
2524.414062	-33.149689
2525.390625	-32.229500
2526.367188	-31.973335
2527.343750	-31.224379
2528.320312	-29.983486
2529.296875	-32.913818
2530.273438	-34.107147
2531.250000	-33.367180
2532.226562	-33.024071
2533.203125	-31.619818
2534.179688	-30.196302
2535.156250	-31.943546
2536.132812	-32.307301
2537.109375	-34.696598
2538.085938	-32.673748
2539.062500	-31.270891
2540.039062	-30.396807
2541.015625	-31.207081
2541.992188	-31.242443
2542.968750	-32.565670
2543.945312	-30.747950
2544.921875	-31.453306
2545.898438	-31.038023
2546.875000	-30.767479
2547.851562	-31.013464
2548.828125	-31.288347
2549.804688	-29.811893
2550.781250	-30.444376
2551.757812	-28.945055
2552.734375	-30.423462
2553.710938	-34.473515
2554.687500	-35.572613
2555.664062	-35.299313
2556.640625	-36.422749
2557.617188	-35.674541
2558.593750	-34.050549
2559.570312	-34.556664
2560.546875	-36.179932
2561.523438	-34.120266
2562.500000	-35.772717
2563.476562	-35.849915
2564.453125	-35.924084
2565.429688	-37.391151
2566.406250	-33.924267
2567.382812	-33.970757
2568.359375	-37.846844
2569.335938	-36.693020
2570.312500	-37.722141
2571.289062	-36.207203
2572.265625	-36.369297
2573.242188	-36.470341
2574.218750	-35.576687
2575.195312	-37.285927
2576.171875	-38.859863
2577.148438	-36.578541
2578.125000	-35.798889
2579.101562	-35.687305
2580.078125	-35.912449
2581.054688	-36.695168
2582.031250	-38.775867
2583.007812	-36.364002
2583.984375	-34.718224
2584.960938	-36.526760
2585.937500	-39.485374
2586.914062	-38.004890
2587.890625	-37.351685
2588.867188	-35.018745
2589.843750	-36.157574
2590.820312	-39.551952
2591.796875	-37.101265
2592.773438	-37.687389
2593.750000	-38.045166
2594.726562	-38.728230
2595.703125	-37.414921
2596.679688	-37.852669
2597.656250	-37.558697
2598.632812	-38.653008
2599.609375	-38.624454
2600.585938	-37.271358
2601.562500	-36.696693
2602.539062	-36.593521
2603.515625	-37.494987
2604.492188	-38.210491
2605.468750	-40.054188
2606.445312	-39.377579
2607.421875	-37.853931
2608.398438	-37.059181
2609.375000	-38.340157
2610.351562	-39.363430
2611.328125	-39.125401
2612.304688	-38.727810
2613.281250	-39.982147
2614.257812	-40.824894
2615.234375	-40.154194
2616.210938	-39.521637
2617.187500	-38.670155
2618.164062	-40.506256
2619.140625	-41.360306
2620.117188	-41.540211
2621.093750	-41.358974
2622.070312	-40.024052
2623.046875	-39.549927
2624.023438	-39.934750
2625.000000	-39.803265
2625.976562	-39.305080
2626.953125	-38.889847
2627.929688	-39.524010
2628.906250	-40.218414
2629.882812	-41.432018
2630.859375	-40.414974
2631.835938	-40.473156
2632.812500	-40.855885
2633.789062	-39.534046
2634.765625	-39.765282
2635.742188	-42.695396
2636.718750	-43.313351
2637.695312	-42.182220
2638.671875	-44.597240
2639.648438	-43.323257
2640.625000	-43.104984
2641.601562	-42.299347
2642.578125	-42.516594
2643.554688	-42.274124
2644.531250	-41.911526
2645.507812	-44.311825
2646.484375	-42.450970
2647.460938	-42.011379
2648.437500	-43.095779
2649.414062	-42.333145
2650.390625	-40.856003
2651.367188	-40.808617
2652.343750	-42.249737
2653.320312	-41.313118
2654.296875	-42.725113
2655.273438	-41.161770
2656.250000	-41.219685
2657.226562	-40.968208
2658.203125	-44.093525
2659.179688	-45.005653
2660.156250	-45.229473
2661.132812	-45.749020
2662.109375	-45.276863
2663.085938	-44.648590
2664.062500	-41.968655
2665.039062	-42.049282
2666.015625	-41.080807
2666.992188	-42.017162
2667.968750	-44.740406
2668.945312	-43.304962
2669.921875	-41.982643
2670.898438	-40.711941
2671.875000	-40.138729
2672.851562	-42.648472
2673.828125	-40.781277
2674.804688	-39.801579
2675.781250	-40.615505
2676.757812	-41.339367
2677.734375	-40.109772
2678.710938	-40.500916
2679.687500	-40.839493
2680.664062	-41.649605
2681.640625	-41.972275
2682.617188	-41.605484
2683.593750	-42.950180
2684.570312	-42.876339
2685.546875	-42.567162
2686.523438	-39.630672
2687.500000	-39.792149
2688.476562	-41.393208
2689.453125	-41.357601
2690.429688	-42.279121
2691.406250	-41.337097
2692.382812	-41.097492
2693.359375	-41.452492
2694.335938	-40.568241
2695.312500	-40.124973
2696.289062	-40.696983
2697.265625	-42.164753
2698.242188	-41.583736
2699.218750	-40.314445
2700.195312	-40.300968
2701.171875	-40.375305
2702.148438	-40.682449
2703.125000	-41.816395
2704.101562	-39.393497
2705.078125	-42.436832
2706.054688	-42.243366
2707.031250	-40.603168
2708.007812	-39.218327
2708.984375	-39.262165
2709.960938	-40.363651
2710.937500	-41.173168
2711.914062	-43.708572
2712.890625	-42.682945
2713.867188	-40.901981
2714.843750	-42.194088
2715.820312	-41.052837
2716.796875	-40.677402
2717.773438	-39.340485
2718.750000	-39.980915
2719.726562	-39.542000
2720.703125	-39.688583
2721.679688	-39.604961
2722.656250	-39.380005
2723.632812	-40.158298
2724.609375	-40.352726
2725.585938	-39.654232
2726.562500	-38.454449
2727.539062	-39.904732
2728.515625	-39.059528
2729.492188	-38.203270
2730.468750	-39.753223
2731.445312	-41.487652
2732.421875	-42.017235
2733.398438	-40.113617
2734.375000	-40.343559
2735.351562	-39.256947
2736.328125	-39.608707
2737.304688	-38.859371
2738.281250	-38.752747
2739.257812	-39.171928
2740.234375	-37.568657
2741.210938	-38.896988
2742.187500	-39.318897
2743.164062	-39.370235
2744.140625	-39.328876
2745.117188	-38.971027
2746.093750	-39.454990
2747.070312	-37.975513
2748.046875	-37.694992
2749.023438	-37.663486
2750.000000	-36.895992
2750.976562	-38.052185
2751.953125	-39.237209
2752.929688	-38.800400
2753.906250	-41.144970
2754.882812	-43.540565
2755.859375	-38.738796
2756.835938	-36.268353
2757.812500	-35.282543
2758.789062	-32.949162
2759.765625	-33.451054
2760.742188	-34.195366
2761.718750	-37.575642
2762.695312	-35.874683
2763.671875	-36.086601
2764.648438	-35.990395
2765.625000	-36.748051
2766.601562	-35.945206
2767.578125	-36.066227
2768.554688	-35.795349
2769.531250	-34.774277
2770.507812	-35.917103
2771.484375	-36.919510
2772.460938	-36.973392
2773.437500	-35.473072
2774.414062	-36.690502
2775.390625	-36.804359
2776.367188	-36.521313
2777.343750	-35.779610
2778.320312	-36.427353
2779.296875	-34.389847
2780.273438	-34.969330
2781.250000	-32.592350
2782.226562	-31.076632
2783.203125	-34.648579
2784.179688	-35.026360
2785.156250	-36.956844
2786.132812	-33.301529
2787.109375	-34.195637
2788.085938	-32.735497
2789.062500	-33.328278
2790.039062	-34.129898
2791.015625	-33.544239
2791.992188	-35.313808
2792.968750	-32.980671
2793.945312	-35.704468
2794.921875	-35.574104
2795.898438	-33.899738
2796.875000	-33.117020
2797.851562	-34.296516
2798.828125	-33.944817
2799.804688	-34.333115
2800.781250	-34.129196
2801.757812	-32.720963
2802.734375	-34.700451
2803.710938	-34.872162
2804.687500	-36.384232
2805.664062	-35.711002
2806.640625	-31.919374
2807.617188	-33.636875
2808.593750	-33.980003
2809.570312	-33.108818
2810.546875	-32.114014
2811.523438	-31.749876
2812.500000	-32.904022
2813.476562	-34.745037
2814.453125	-34.763546
2815.429688	-35.280037
2816.406250	-31.544535
2817.382812	-32.308331
2818.359375	-35.916275
2819.335938	-35.139961
2820.312500	-32.246620
2821.289062	-31.508743
2822.265625	-32.189301
2823.242188	-34.176586
2824.218750	-35.881172
2825.195312	-33.306900
2826.171875	-31.826040
2827.148438	-31.254814
2828.125000	-33.776157
2829.101562	-34.409912
2830.078125	-32.887238
2831.054688	-32.077164
2832.031250	-31.308161
2833.007812	-32.582558
2833.984375	-35.310532
2834.960938	-33.632973
2835.937500	-30.775057
2836.914062	-32.738758
2837.890625	-34.297421
2838.867188	-33.571178
2839.843750	-33.341656
2840.820312	-32.604744
2841.796875	-31.417620
2842.773438	-32.500114
2843.750000	-33.888927
2844.726562	-32.211086
2845.703125	-31.744043
2846.679688	-31.887873
2847.656250	-32.788166
2848.632812	-32.516682
2849.609375	-33.134686
2850.585938	-31.238291
2851.562500	-32.156002
2852.539062	-30.979605
2853.515625	-32.339130
2854.492188	-34.649090
2855.468750	-32.605930
2856.445312	-29.794165
2857.421875	-30.573671
2858.398438	-32.843681
2859.375000	-33.303688
2860.351562	-34.336304
2861.328125	-33.871487
2862.304688	-33.207962
2863.281250	-33.371620
2864.257812	-32.949738
2865.234375	-34.257679
2866.210938	-34.180313
2867.187500	-33.425297
2868.164062	-32.966724
2869.140625	-33.596767
2870.117188	-33.951458
2871.093750	-33.465221
2872.070312	-33.843349
2873.046875	-33.442589
2874.023438	-35.876770
2875.000000	-35.390526
2875.976562	-33.947304
2876.953125	-35.125675
2877.929688	-33.672722
2878.906250	-34.855976
2879.882812	-33.528152
2880.859375	-32.390984
2881.835938	-33.840248
2882.812500	-34.267876
2883.789062	-35.730278
2884.765625	-37.115917
2885.742188	-33.314957
2886.718750	-34.059254
2887.695312	-35.832661
2888.671875	-35.491047
2889.648438	-33.760811
2890.625000	-35.603905
2891.601562	-34.988651
2892.578125	-35.242771
2893.554688	-35.238327
2894.531250	-34.316380
2895.507812	-35.751114
2896.484375	-37.560619
2897.460938	-36.489662
2898.437500	-36.607445
2899.414062	-36.525478
2900.390625	-34.922138
2901.367188	-36.371735
2902.343750	-36.742027
2903.320312	-37.546623
2904.296875	-36.727573
2905.273438	-35.847351
2906.250000	-35.984844
2907.226562	-37.540730
2908.203125	-37.559231
2909.179688	-37.638031
2910.156250	-39.345348
2911.132812	-36.008980
2912.109375	-35.710838
2913.085938	-37.790615
2914.062500	-35.382046
2915.039062	-35.499435
2916.015625	-39.249966
2916.992188	-38.236729
2917.968750	-39.822403
2918.945312	-40.919720
2919.921875	-40.023602
2920.898438	-36.639126
2921.875000	-36.800648
2922.851562	-37.268597
2923.828125	-36.602474
2924.804688	-36.864292
2925.781250	-37.677490
2926.757812	-39.748398
2927.734375	-40.379143
2928.710938	-39.757660
2929.687500	-38.168545
2930.664062	-39.274746
2931.640625	-38.310516
2932.617188	-39.717102
2933.593750	-38.997673
2934.570312	-36.466339
2935.546875	-36.809013
2936.523438	-40.793091
2937.500000	-39.974110
2938.476562	-43.115307
2939.453125	-41.812347
2940.429688	-38.889610
2941.406250	-40.168037
2942.382812	-40.124279
2943.359375	-40.681252
2944.335938	-41.374985
2945.312500	-37.124348
2946.289062	-38.646458
2947.265625	-39.985382
2948.242188	-39.281422
2949.218750	-43.556507
2950.195312	-42.866199
2951.171875	-39.721390
2952.148438	-38.406879
2953.125000	-41.189110
2954.101562	-40.657181
2955.078125	-43.899803
2956.054688	-40.423100
2957.031250	-42.085526
2958.007812	-39.788029
2958.984375	-38.441189
2959.960938	-42.755093
2960.937500	-44.605499
2961.914062	-42.115280
2962.890625	-38.794170
2963.867188	-40.424179
2964.843750	-41.322807
2965.820312	-45.847046
2966.796875	-43.302155
2967.773438	-42.703323
2968.750000	-41.342808
2969.726562	-39.853100
2970.703125	-41.335781
2971.679688	-45.901241
2972.656250	-47.365726
2973.632812	-40.074810
2974.609375	-40.658035
2975.585938	-43.192810
2976.562500	-43.096947
2977.539062	-44.792583
2978.515625	-43.913052
2979.492188	-47.564766
2980.468750	-43.267197
2981.445312	-42.775951
2982.421875	-41.527630
2983.398438	-46.371128
2984.375000	-44.082710
2985.351562	-40.578186
2986.328125	-41.542870
2987.304688	-43.156242
2988.281250	-46.986069
2989.257812	-44.051010
2990.234375	-46.590523
2991.210938	-44.620018
2992.187500	-44.845478
2993.164062	-43.200653
2994.140625	-46.010834
2995.117188	-50.198673
2996.093750	-48.018303
2997.070312	-43.226994
2998.046875	-42.891014
2999.023438	-45.384163
3000.000000	-47.617409
3000.976562	-48.126621
3001.953125	-49.025101
3002.929688	-49.545383
3003.906250	-47.439892
3004.882812	-47.301159
3005.859375	-47.159519
3006.835938	-49.118542
3007.812500	-49.859081
3008.789062	-44.675571
3009.765625	-43.025654
3010.742188	-47.422295
3011.718750	-48.205456
3012.695312	-47.079685
3013.671875	-47.484573
3014.648438	-48.283924
3015.625000	-48.198921
3016.601562	-49.266602
3017.578125	-48.157520
3018.554688	-50.393497
3019.531250	-50.724960
3020.507812	-46.739960
3021.484375	-46.531216
3022.460938	-51.491913
3023.437500	-48.094227
3024.414062	-47.834988
3025.390625	-50.035767
3026.367188	-51.514286
3027.343750	-51.335800
3028.320312	-51.258106
3029.296875	-51.216335
3030.273438	-51.176109
3031.250000	-50.503239
3032.226562	-49.274284
3033.203125	-48.118080
3034.179688	-50.401371
3035.156250	-48.185345
3036.132812	-46.708626
3037.109375	-50.258659
3038.085938	-50.979958
3039.062500	-52.844032
3040.039062	-51.378548
3041.015625	-51.515205
3041.992188	-49.861046
3042.968750	-51.032383
3043.945312	-50.573040
3044.921875	-50.099350
3045.898438	-51.459934
3046.875000	-47.191223
3047.851562	-47.045845
3048.828125	-51.999866
3049.804688	-52.656223
3050.781250	-53.882236
3051.757812	-51.496292
3052.734375	-51.623363
3053.710938	-52.097691
3054.687500	-50.490761
3055.664062	-50.600498
3056.640625	-51.644836
3057.617188	-51.997955
3058.593750	-48.411961
3059.570312	-46.554291
3060.546875	-51.059357
3061.523438	-53.108746
3062.500000	-52.451393
3063.476562	-52.670269
3064.453125	-53.373604
3065.429688	-52.439106
3066.406250	-50.384380
3067.382812	-50.863819
3068.359375	-51.765095
3069.335938	-52.299343
3070.312500	-48.987820
3071.289062	-48.226009
3072.265625	-51.629089
3073.242188	-51.868496
3074.218750	-52.754421
3075.195312	-51.997952
3076.171875	-53.532948
3077.148438	-53.069660
3078.125000	-52.918327
3079.101562	-51.785484
3080.078125	-53.211205
3081.054688	-55.173607
3082.031250	-50.571766
3083.007812	-49.196102
3083.984375	-51.517426
3084.960938	-52.005760
3085.937500	-51.459110
3086.914062	-53.682293
3087.890625	-54.949570
3088.867188	-54.299732
3089.843750	-52.366905
3090.820312	-53.102959
3091.796875	-53.410900
3092.773438	-53.185246
3093.750000	-51.011009
3094.726562	-50.827301
3095.703125	-52.296749
3096.679688	-51.609558
3097.656250	-52.280018
3098.632812	-53.651554
3099.609375	-53.609940
3100.585938	-53.621887
3101.562500	-55.063004
3102.539062	-54.181122
3103.515625	-53.606373
3104.492188	-53.670639
3105.468750	-51.802162
3106.445312	-52.424236
3107.421875	-55.143242
3108.398438	-51.320366
3109.375000	-51.065578
3110.351562	-51.880169
3111.328125	-53.508327
3112.304688	-54.010086
3113.281250	-54.027962
3114.257812	-53.501926
3115.234375	-51.506641
3116.210938	-52.984215
3117.187500	-52.272564
3118.164062	-52.174854
3119.140625	-51.252361
3120.117188	-50.382984
3121.093750	-51.017242
3122.070312	-53.435066
3123.046875	-53.396622
3124.023438	-54.484833
3125.000000	-54.259907
3125.976562	-53.548656
3126.953125	-53.384663
3127.929688	-53.418224
3128.906250	-54.445713
3129.882812	-54.663921
3130.859375	-55.321384
3131.835938	-53.852730
3132.812500	-52.423000
3133.789062	-52.977684
3134.765625	-53.689960
3135.742188	-54.538490
3136.718750	-53.718349
3137.695312	-54.067707
3138.671875	-52.742142
3139.648438	-52.368813
3140.625000	-53.220913
3141.601562	-52.327709
3142.578125	-53.961185
3143.554688	-53.294266
3144.531250	-52.121490
3145.507812	-54.053822
3146.484375	-54.327892
3147.460938	-53.456596
3148.437500	-54.396351
3149.414062	-54.283035
3150.390625	-54.074039
3151.367188	-54.416737
3152.343750	-55.380466
3153.320312	-54.329124
3154.296875	-55.132069
3155.273438	-54.328011
3156.250000	-53.546844
3157.226562	-52.951321
3158.203125	-54.221794
3159.179688	-54.240067
3160.156250	-52.468899
3161.132812	-54.146179
3162.109375	-55.127361
3163.085938	-54.420387
3164.062500	-52.610455
3165.039062	-52.662350
3166.015625	-53.134876
3166.992188	-53.226151
3167.968750	-53.529472
3168.945312	-52.844593
3169.921875	-55.524017
3170.898438	-53.629742
3171.875000	-52.780209
3172.851562	-53.169891
3173.828125	-53.910702
3174.804688	-53.414383
3175.781250	-53.122646
3176.757812	-54.432926
3177.734375	-53.149963
3178.710938	-53.362637
3179.687500	-54.181427
3180.664062	-53.455906
3181.640625	-54.285519
3182.617188	-52.380802
3183.593750	-53.045788
3184.570312	-55.601971
3185.546875	-55.332172
3186.523438	-53.388821
3187.500000	-53.398026
3188.476562	-52.435986
3189.453125	-52.632725
3190.429688	-52.617222
3191.406250	-51.915867
3192.382812	-53.311474
3193.359375	-54.262791
3194.335938	-53.112034
3195.312500	-52.259380
3196.289062	-53.058216
3197.265625	-53.689278
3198.242188	-52.142189
3199.218750	-51.918121
3200.195312	-56.172966
3201.171875	-55.660992
3202.148438	-53.499813
3203.125000	-53.669590
3204.101562	-55.366837
3205.078125	-52.649330
3206.054688	-52.724197
3207.031250	-54.576729
3208.007812	-54.641682
3208.984375	-54.575859
3209.960938	-55.845669
3210.937500	-52.517658
3211.914062	-53.885437
3212.890625	-52.717529
3213.867188	-52.845974
3214.843750	-53.972038
3215.820312	-53.412399
3216.796875	-54.532085
3217.773438	-53.696270
3218.750000	-52.669373
3219.726562	-53.886497
3220.703125	-53.016903
3221.679688	-53.842045
3222.656250	-53.758255
3223.632812	-53.916805
3224.609375	-52.641586
3225.585938	-52.410797
3226.562500	-52.929249
3227.539062	-52.644863
3228.515625	-54.199795
3229.492188	-54.495152
3230.468750	-54.732189
3231.445312	-56.067974
3232.421875	-56.464130
3233.398438	-54.755928
3234.375000	-53.719318
3235.351562	-52.729797
3236.328125	-51.987770
3237.304688	-51.759018
3238.281250	-52.284901
3239.257812	-52.990025
3240.234375	-52.911919
3241.210938	-53.500572
3242.187500	-54.020622
3243.164062	-53.327526
3244.140625	-53.455662
3245.117188	-52.182487
3246.093750	-52.570610
3247.070312	-53.352966
3248.046875	-54.594307
3249.023438	-53.114021
3250.000000	-52.537476
3250.976562	-55.802780
3251.953125	-53.998665
3252.929688	-53.608814
3253.906250	-55.749645
3254.882812	-54.337376
3255.859375	-53.805756
3256.835938	-53.223854
3257.812500	-54.052387
3258.789062	-51.707397
3259.765625	-54.155064
3260.742188	-53.121929
3261.718750	-52.946236
3262.695312	-52.310726
3263.671875	-51.307312
3264.648438	-51.662148
3265.625000	-51.420162
3266.601562	-52.765800
3267.578125	-51.752941
3268.554688	-51.774536
3269.531250	-52.533199
3270.507812	-51.533211
3271.484375	-51.961224
3272.460938	-52.507603
3273.437500	-51.475979
3274.414062	-52.447464
3275.390625	-52.233810
3276.367188	-52.522362
3277.343750	-51.701504
3278.320312	-52.237934
3279.296875	-52.716015
3280.273438	-53.134525
3281.250000	-50.968143
3282.226562	-51.058350
3283.203125	-52.891785
3284.179688	-50.358662
3285.156250	-49.185944
3286.132812	-51.424419
3287.109375	-49.841858
3288.085938	-50.951050
3289.062500	-50.740234
3290.039062	-50.531422
3291.015625	-51.317543
3291.992188	-51.543468
3292.968750	-51.219360
3293.945312	-49.179420
3294.921875	-50.464180
3295.898438	-50.970005
3296.875000	-50.852478
3297.851562	-52.072464
3298.828125	-49.859951
3299.804688	-50.267605
3300.781250	-50.581005
3301.757812	-49.575832
3302.734375	-50.255772
3303.710938	-50.322117
3304.687500	-49.039959
3305.664062	-48.084782
3306.640625	-48.964001
3307.617188	-49.556862
3308.593750	-49.703491
3309.570312	-48.475338
3310.546875	-48.362103
3311.523438	-47.937572
3312.500000	-47.251095
3313.476562	-49.371723
3314.453125	-49.679955
3315.429688	-48.765068
3316.406250	-49.629601
3317.382812	-50.169792
3318.359375	-50.009380
3319.335938	-48.925957
3320.312500	-49.289497
3321.289062	-49.296917
3322.265625	-48.224461
3323.242188	-50.330261
3324.218750	-48.931725
3325.195312	-49.282013
3326.171875	-47.729050
3327.148438	-47.056721
3328.125000	-49.936855
3329.101562	-50.526535
3330.078125	-50.276546
3331.054688	-49.335876
3332.031250	-48.086185
3333.007812	-46.168755
3333.984375	-47.455872
3334.960938	-47.208679
3335.937500	-45.021206
3336.914062	-47.885902
3337.890625	-49.817509
3338.867188	-47.733269
3339.843750	-49.363819
3340.820312	-48.319633
3341.796875	-48.921669
3342.773438	-46.830158
3343.750000	-48.663742
3344.726562	-48.574192
3345.703125	-49.913830
3346.679688	-48.695332
3347.656250	-47.840614
3348.632812	-48.852852
3349.609375	-47.642838
3350.585938	-47.738068
3351.562500	-49.059586
3352.539062	-47.980953
3353.515625	-49.639732
3354.492188	-48.935001
3355.468750	-47.864082
3356.445312	-47.859810
3357.421875	-47.451965
3358.398438	-49.943932
3359.375000	-48.181400
3360.351562	-47.179306
3361.328125	-50.492081
3362.304688	-50.567322
3363.281250	-49.137188
3364.257812	-49.678356
3365.234375	-50.810005
3366.210938	-49.698067
3367.187500	-48.508961
3368.164062	-48.996838
3369.140625	-49.691048
3370.117188	-49.480816
3371.093750	-49.397564
3372.070312	-49.345108
3373.046875	-49.220676
3374.023438	-50.188122
3375.000000	-50.799538
3375.976562	-48.631168
3376.953125	-51.051468
3377.929688	-50.199917
3378.906250	-51.250813
3379.882812	-48.748165
3380.859375	-47.711903
3381.835938	-48.603214
3382.812500	-49.266720
3383.789062	-50.308849
3384.765625	-49.377796
3385.742188	-51.064262
3386.718750	-51.743019
3387.695312	-50.631580
3388.671875	-50.499416
3389.648438	-49.634468
3390.625000	-51.417377
3391.601562	-51.785965
3392.578125	-51.834911
3393.554688	-52.311707
3394.531250	-52.192112
3395.507812	-52.492687
3396.484375	-51.216724
3397.460938	-52.671852
3398.437500	-51.758816
3399.414062	-50.447563
3400.390625	-49.800934
3401.367188	-51.999622
3402.343750	-51.172203
3403.320312	-51.533718
3404.296875	-51.075420
3405.273438	-49.727970
3406.250000	-49.256989
3407.226562	-50.098984
3408.203125	-50.896538
3409.179688	-50.525776
3410.156250	-52.833805
3411.132812	-52.123421
3412.109375	-52.248707
3413.085938	-52.023369
3414.062500	-51.467152
3415.039062	-50.821945
3416.015625	-52.696732
3416.992188	-53.099934
3417.968750	-52.201263
3418.945312	-53.221401
3419.921875	-52.973358
3420.898438	-52.163128
3421.875000	-52.189247
3422.851562	-51.679806
3423.828125	-52.277508
3424.804688	-52.255474
3425.781250	-52.706310
3426.757812	-53.458569
3427.734375	-51.990868
3428.710938	-51.222805
3429.687500	-51.388897
3430.664062	-51.501808
3431.640625	-51.480858
3432.617188	-53.644459
3433.593750	-52.876019
3434.570312	-53.647789
3435.546875	-54.065884
3436.523438	-54.837620
3437.500000	-52.890434
3438.476562	-54.075062
3439.453125	-53.333660
3440.429688	-54.246338
3441.406250	-53.849823
3442.382812	-54.745174
3443.359375	-55.110668
3444.335938	-52.872734
3445.312500	-53.933968
3446.289062	-53.776718
3447.265625	-53.424324
3448.242188	-52.891121
3449.218750	-54.514351
3450.195312	-53.279297
3451.171875	-53.850689
3452.148438	-54.213505
3453.125000	-53.011971
3454.101562	-53.250130
3455.078125	-53.044598
3456.054688	-55.857124
3457.031250	-54.904266
3458.007812	-54.359089
3458.984375	-55.115757
3459.960938	-54.644184
3460.937500	-54.141838
3461.914062	-55.320229
3462.890625	-53.711918
3463.867188	-53.905041
3464.843750	-54.337120
3465.820312	-54.601490
3466.796875	-54.305870
3467.773438	-54.531727
3468.750000	-55.110409
3469.726562	-54.082077
3470.703125	-54.054237
3471.679688	-56.024517
3472.656250	-55.820602
3473.632812	-53.305851
3474.609375	-54.007957
3475.585938	-53.210674
3476.562500	-54.394257
3477.539062	-54.722794
3478.515625	-55.755619
3479.492188	-54.295677
3480.468750	-55.226292
3481.445312	-55.698566
3482.421875	-56.806812
3483.398438	-55.531410
3484.375000	-56.132378
3485.351562	-56.203758
3486.328125	-56.217567
3487.304688	-54.770245
3488.281250	-54.941692
3489.257812	-55.763157
3490.234375	-55.177261
3491.210938	-56.028599
3492.187500	-56.891167
3493.164062	-54.531693
3494.140625	-55.632492
3495.117188	-55.062496
3496.093750	-54.888866
3497.070312	-56.135891
3498.046875	-55.219543
3499.023438	-55.907494
3500.000000	-57.720036
3500.976562	-56.295464
3501.953125	-56.586685
3502.929688	-55.304855
3503.906250	-54.780239
3504.882812	-56.253330
3505.859375	-54.575752
3506.835938	-56.726620
3507.812500	-57.019638
3508.789062	-55.583725
3509.765625	-54.069050
3510.742188	-55.619717
3511.718750	-54.412514
3512.695312	-56.057129
3513.671875	-57.253323
3514.648438	-57.121429
3515.625000	-56.407978
3516.601562	-56.977707
3517.578125	-56.270676
3518.554688	-55.667587
3519.531250	-54.027908
3520.507812	-56.323704
3521.484375	-57.251148
3522.460938	-56.431301
3523.437500	-55.444878
3524.414062	-54.722057
3525.390625	-56.192997
3526.367188	-56.597591
3527.343750	-57.937897
3528.320312	-57.354927
3529.296875	-56.835583
3530.273438	-58.406727
3531.250000	-58.859749
3532.226562	-54.981869
3533.203125	-54.151451
3534.179688	-54.770927
3535.156250	-58.619659
3536.132812	-56.284546
3537.109375	-55.976944
3538.085938	-57.804977
3539.062500	-57.420757
3540.039062	-57.404724
3541.015625	-55.980453
3541.992188	-55.567795
3542.968750	-57.345310
3543.945312	-56.309639
3544.921875	-56.734150
3545.898438	-57.547520
3546.875000	-55.641266
3547.851562	-58.181618
3548.828125	-56.758148
3549.804688	-57.261242
3550.781250	-56.267815
3551.757812	-57.462982
3552.734375	-57.191807
3553.710938	-57.191841
3554.687500	-57.364578
3555.664062	-55.879498
3556.640625	-55.806145
3557.617188	-58.842327
3558.593750	-57.039680
3559.570312	-56.767704
3560.546875	-57.151005
3561.523438	-58.516293
3562.500000	-57.138100
3563.476562	-57.596569
3564.453125	-57.907982
3565.429688	-59.051750
3566.406250	-58.558971
3567.382812	-57.289162
3568.359375	-58.895977
3569.335938	-57.492146
3570.312500	-56.400455
3571.289062	-59.359608
3572.265625	-59.107494
3573.242188	-57.375122
3574.218750	-57.977802
3575.195312	-58.276272
3576.171875	-57.996075
3577.148438	-58.277328
3578.125000	-59.206734
3579.101562	-59.505989
3580.078125	-59.569923
3581.054688	-59.285004
3582.031250	-58.558876
3583.007812	-58.564739
3583.984375	-56.138584
3584.960938	-58.395134
3585.937500	-59.386429
3586.914062	-58.600422
3587.890625	-58.822552
3588.867188	-59.682205
3589.843750	-59.033756
3590.820312	-58.433884
3591.796875	-58.548233
3592.773438	-58.632298
3593.750000	-57.939926
3594.726562	-58.446262
3595.703125	-57.783939
3596.679688	-57.651142
3597.656250	-56.620987
3598.632812	-58.141357
3599.609375	-58.696636
3600.585938	-58.049023
3601.562500	-59.688419
3602.539062	-57.412090
3603.515625	-57.868954
3604.492188	-58.977207
3605.468750	-59.429893
3606.445312	-59.044918
3607.421875	-59.534351
3608.398438	-59.136600
3609.375000	-60.234348
3610.351562	-60.404060
3611.328125	-59.032768
3612.304688	-59.656464
3613.281250	-57.201870
3614.257812	-58.537693
3615.234375	-58.463791
3616.210938	-59.840710
3617.187500	-60.934368
3618.164062	-59.623169
3619.140625	-59.133362
3620.117188	-58.242233
3621.093750	-58.354664
3622.070312	-57.393227
3623.046875	-58.894928
3624.023438	-59.160583
3625.000000	-60.494427
3625.976562	-59.331318
3626.953125	-58.423458
3627.929688	-59.968605
3628.906250	-59.304325
3629.882812	-58.608627
3630.859375	-59.345573
3631.835938	-57.698254
3632.812500	-60.746780
3633.789062	-59.391064
3634.765625	-58.604012
3635.742188	-59.395630
3636.718750	-59.073151
3637.695312	-59.515484
3638.671875	-59.542820
3639.648438	-58.780449
3640.625000	-59.089027
3641.601562	-58.893238
3642.578125	-57.901596
3643.554688	-56.883369
3644.531250	-58.605209
3645.507812	-57.805450
3646.484375	-58.802822
3647.460938	-57.676167
3648.437500	-58.541729
3649.414062	-59.594650
3650.390625	-57.744511
3651.367188	-57.120651
3652.343750	-58.511730
3653.320312	-59.690968
3654.296875	-59.299606
3655.273438	-58.638096
3656.250000	-58.679985
3657.226562	-58.539669
3658.203125	-59.357979
3659.179688	-59.010338
3660.156250	-59.316273
3661.132812	-59.347366
3662.109375	-59.484234
3663.085938	-60.022995
3664.062500	-59.543652
3665.039062	-57.194397
3666.015625	-58.950249
3666.992188	-59.284374
3667.968750	-57.302757
3668.945312	-57.381836
3669.921875	-57.464146
3670.898438	-61.278210
3671.875000	-58.183907
3672.851562	-58.052807
3673.828125	-58.494511
3674.804688	-59.278309
3675.781250	-59.479721
3676.757812	-58.453369
3677.734375	-59.664684
3678.710938	-58.200439
3679.687500	-59.808567
3680.664062	-59.714298
3681.640625	-59.293594
3682.617188	-60.524498
3683.593750	-58.155655
3684.570312	-59.737190
3685.546875	-59.819344
3686.523438	-58.493706
3687.500000	-58.312214
3688.476562	-57.707466
3689.453125	-57.865425
3690.429688	-57.968815
3691.406250	-58.869465
3692.382812	-59.556301
3693.359375	-58.330872
3694.335938	-57.662182
3695.312500	-58.453102
3696.289062	-60.142632
3697.265625	-60.459904
3698.242188	-58.626064
3699.218750	-59.531784
3700.195312	-58.747929
3701.171875	-58.332691
3702.148438	-59.154900
3703.125000	-59.379154
3704.101562	-60.908897
3705.078125	-58.608807
3706.054688	-60.477772
3707.031250	-61.819107
3708.007812	-58.779919
3708.984375	-59.609489
3709.960938	-59.958805
3710.937500	-58.120689
3711.914062	-57.996830
3712.890625	-58.808235
3713.867188	-60.064110
3714.843750	-59.533943
3715.820312	-58.955441
3716.796875	-58.843140
3717.773438	-57.956150
3718.750000	-58.857082
3719.726562	-58.398079
3720.703125	-59.810230
3721.679688	-59.341331
3722.656250	-59.171169
3723.632812	-59.121727
3724.609375	-60.460564
3725.585938	-59.556355
3726.562500	-58.175220
3727.539062	-59.307224
3728.515625	-58.398445
3729.492188	-61.127960
3730.468750	-59.187984
3731.445312	-58.673161
3732.421875	-58.453320
3733.398438	-58.730209
3734.375000	-59.651516
3735.351562	-59.761669
3736.328125	-60.205429
3737.304688	-59.029579
3738.281250	-59.519516
3739.257812	-59.268574
3740.234375	-59.732780
3741.210938	-59.221821
3742.187500	-58.154655
3743.164062	-59.126156
3744.140625	-58.735317
3745.117188	-59.157986
3746.093750	-57.723087
3747.070312	-59.030739
3748.046875	-58.922264
3749.023438	-58.551880
3750.000000	-60.047787
3750.976562	-59.046288
3751.953125	-58.737862
3752.929688	-58.074455
3753.906250	-59.630745
3754.882812	-58.308964
3755.859375	-57.837105
3756.835938	-58.977585
3757.812500	-58.891266
3758.789062	-60.215267
3759.765625	-57.812061
3760.742188	-58.796223
3761.718750	-59.680763
3762.695312	-57.815723
3763.671875	-59.068867
3764.648438	-58.217178
3765.625000	-59.403561
3766.601562	-59.240128
3767.578125	-59.327446
3768.554688	-60.691399
3769.531250	-58.227657
3770.507812	-58.299313
3771.484375	-59.206860
3772.460938	-58.397141
3773.437500	-58.201286
3774.414062	-58.169682
3775.390625	-59.233601
3776.367188	-58.379272
3777.343750	-58.206379
3778.320312	-58.060070
3779.296875	-57.841465
3780.273438	-59.488876
3781.250000	-58.047421
3782.226562	-59.543213
3783.203125	-59.903072
3784.179688	-60.246017
3785.156250	-56.431149
3786.132812	-58.961143
3787.109375	-59.075619
3788.085938	-56.825962
3789.062500	-56.939320
3790.039062	-57.146996
3791.015625	-57.050064
3791.992188	-58.931583
3792.968750	-57.320801
3793.945312	-57.701427
3794.921875	-59.086994
3795.898438	-57.949226
3796.875000	-56.891918
3797.851562	-58.552380
3798.828125	-58.448540
3799.804688	-59.028973
3800.781250	-57.014816
3801.757812	-56.911606
3802.734375	-59.332424
3803.710938	-56.802746
3804.687500	-58.637856
3805.664062	-59.038929
3806.640625	-58.065952
3807.617188	-59.615978
3808.593750	-57.165970
3809.570312	-55.834961
3810.546875	-56.666973
3811.523438	-56.109592
3812.500000	-56.528652
3813.476562	-56.078388
3814.453125	-58.044609
3815.429688	-58.709446
3816.406250	-57.491535
3817.382812	-58.124432
3818.359375	-58.326466
3819.335938	-58.541500
3820.312500	-59.231491
3821.289062	-58.709061
3822.265625	-57.423855
3823.242188	-57.411556
3824.218750	-56.799492
3825.195312	-56.960464
3826.171875	-58.788170
3827.148438	-58.083500
3828.125000	-57.632828
3829.101562	-59.905594
3830.078125	-58.456726
3831.054688	-57.393581
3832.031250	-58.893749
3833.007812	-57.229244
3833.984375	-57.708805
3834.960938	-59.052467
3835.937500	-57.145729
3836.914062	-56.825649
3837.890625	-57.790234
3838.867188	-56.768299
3839.843750	-58.178963
3840.820312	-58.533764
3841.796875	-57.755096
3842.773438	-59.279900
3843.750000	-57.639957
3844.726562	-57.447701
3845.703125	-58.634056
3846.679688	-57.243099
3847.656250	-58.741142
3848.632812	-58.469444
3849.609375	-58.523586
3850.585938	-57.907787
3851.562500	-59.087212
3852.539062	-58.913784
3853.515625	-58.412334
3854.492188	-58.540440
3855.468750	-58.146847
3856.445312	-58.815865
3857.421875	-59.248775
3858.398438	-57.630947
3859.375000	-57.381615
3860.351562	-56.216850
3861.328125	-56.221863
3862.304688	-58.442070
3863.281250	-58.883217
3864.257812	-58.028713
3865.234375	-58.639858
3866.210938	-57.237892
3867.187500	-57.877140
3868.164062	-58.796947
3869.140625	-59.090118
3870.117188	-58.391792
3871.093750	-59.033092
3872.070312	-58.856056
3873.046875	-57.717724
3874.023438	-57.008774
3875.000000	-57.971207
3875.976562	-59.828274
3876.953125	-59.714340
3877.929688	-58.967388
3878.906250	-57.460205
3879.882812	-56.943039
3880.859375	-57.436539
3881.835938	-57.668358
3882.812500	-57.534065
3883.789062	-58.266853
3884.765625	-59.745338
3885.742188	-59.552769
3886.718750	-59.323078
3887.695312	-58.409870
3888.671875	-58.169884
3889.648438	-57.911903
3890.625000	-59.313545
3891.601562	-57.839100
3892.578125	-58.789810
3893.554688	-59.582184
3894.531250	-59.148911
3895.507812	-59.814602
3896.484375	-59.733311
3897.460938	-59.806854
3898.437500	-57.707874
3899.414062	-58.342316
3900.390625	-59.056015
3901.367188	-60.120346
3902.343750	-59.218952
3903.320312	-57.234249
3904.296875	-59.199207
3905.273438	-59.771130
3906.250000	-60.140312
3907.226562	-59.985168
3908.203125	-60.607521
3909.179688	-59.436237
3910.156250	-59.226940
3911.132812	-59.949383
3912.109375	-59.995308
3913.085938	-58.698513
3914.062500	-58.865330
3915.039062	-59.525822
3916.015625	-58.962639
3916.992188	-58.165630
3917.968750	-59.707764
3918.945312	-60.915245
3919.921875	-59.358604
3920.898438	-59.150906
3921.875000	-60.570164
3922.851562	-60.153828
3923.828125	-61.309917
3924.804688	-59.945473
3925.781250	-59.760723
3926.757812	-59.548912
3927.734375	-61.101757
3928.710938	-61.219315
3929.687500	-60.451675
3930.664062	-60.088955
3931.640625	-57.244286
3932.617188	-61.023781
3933.593750	-61.307079
3934.570312	-59.854874
3935.546875	-60.366066
3936.523438	-59.979729
3937.500000	-59.748096
3938.476562	-59.917992
3939.453125	-63.011261
3940.429688	-61.788727
3941.406250	-58.229088
3942.382812	-59.035736
3943.359375	-60.265278
3944.335938	-59.740238
3945.312500	-59.811234
3946.289062	-60.093441
3947.265625	-60.518055
3948.242188	-59.648911
3949.218750	-59.852116
3950.195312	-58.602493
3951.171875	-59.420071
3952.148438	-59.889885
3953.125000	-59.490051
3954.101562	-60.499454
3955.078125	-60.002712
3956.054688	-60.488594
3957.031250	-60.424629
3958.007812	-60.246464
3958.984375	-61.079556
3959.960938	-60.134964
3960.937500	-59.961151
3961.914062	-60.159584
3962.890625	-60.416981
3963.867188	-60.389328
3964.843750	-60.807678
3965.820312	-60.621143
3966.796875	-61.615990
3967.773438	-61.446144
3968.750000	-61.376995
3969.726562	-58.823074
3970.703125	-60.227554
3971.679688	-61.086838
3972.656250	-60.534626
3973.632812	-60.843563
3974.609375	-60.012714
3975.585938	-60.816628
3976.562500	-59.877064
3977.539062	-60.371998
3978.515625	-60.220150
3979.492188	-60.421680
3980.468750	-61.025566
3981.445312	-61.075912
3982.421875	-61.567589
3983.398438	-59.662373
3984.375000	-59.504936
3985.351562	-61.040516
3986.328125	-61.028629
3987.304688	-61.162422
3988.281250	-61.788063
3989.257812	-61.263321
3990.234375	-59.578232
3991.210938	-60.928204
3992.187500	-60.974667
3993.164062	-62.422382
3994.140625	-60.738831
3995.117188	-60.917034
3996.093750	-61.100956
3997.070312	-61.571178
3998.046875	-60.804386
3999.023438	-60.686787
4000.000000	-62.222672
4000.976562	-60.687923
4001.953125	-60.742920
4002.929688	-61.792065
4003.906250	-61.629662
4004.882812	-62.448734
4005.859375	-60.414764
4006.835938	-60.493370
4007.812500	-61.476940
4008.789062	-60.712978
4009.765625	-61.578236
4010.742188	-61.725735
4011.718750	-61.745075
4012.695312	-60.784794
4013.671875	-61.533550
4014.648438	-60.455425
4015.625000	-61.668556
4016.601562	-62.801136
4017.578125	-62.127548
4018.554688	-63.157982
4019.531250	-62.494522
4020.507812	-60.878880
4021.484375	-62.690739
4022.460938	-60.958664
4023.437500	-59.858978
4024.414062	-61.225876
4025.390625	-62.045040
4026.367188	-62.462162
4027.343750	-61.440224
4028.320312	-61.508587
4029.296875	-61.286285
4030.273438	-59.798512
4031.250000	-62.165668
4032.226562	-62.462730
4033.203125	-62.300468
4034.179688	-62.847916
4035.156250	-63.097374
4036.132812	-62.145084
4037.109375	-60.739468
4038.085938	-61.626476
4039.062500	-62.533230
4040.039062	-62.808109
4041.015625	-60.507908
4041.992188	-60.901310
4042.968750	-60.925194
4043.945312	-61.932747
4044.921875	-61.923882
4045.898438	-61.563229
4046.875000	-60.662571
4047.851562	-59.931911
4048.828125	-60.655289
4049.804688	-61.567745
4050.781250	-61.549316
4051.757812	-60.060196
4052.734375	-60.939537
4053.710938	-63.455265
4054.687500	-62.847931
4055.664062	-62.035152
4056.640625	-62.521286
4057.617188	-61.295902
4058.593750	-61.898239
4059.570312	-60.794044
4060.546875	-61.364567
4061.523438	-61.326134
4062.500000	-62.930542
4063.476562	-63.711811
4064.453125	-62.415043
4065.429688	-62.668144
4066.406250	-60.724373
4067.382812	-60.602573
4068.359375	-61.937283
4069.335938	-61.821262
4070.312500	-63.286678
4071.289062	-62.455753
4072.265625	-60.832474
4073.242188	-60.306808
4074.218750	-61.663120
4075.195312	-61.346130
4076.171875	-61.202667
4077.148438	-61.148834
4078.125000	-61.823223
4079.101562	-62.708748
4080.078125	-62.974060
4081.054688	-61.956810
4082.031250	-62.583115
4083.007812	-61.437538
4083.984375	-62.589520
4084.960938	-62.993660
4085.937500	-62.347145
4086.914062	-61.666336
4087.890625	-61.527554
4088.867188	-62.254730
4089.843750	-61.525539
4090.820312	-60.290092
4091.796875	-60.961483
4092.773438	-60.766178
4093.750000	-61.617668
4094.726562	-62.193581
4095.703125	-62.422844
4096.679688	-62.258579
4097.656250	-62.594173
4098.632812	-62.731476
4099.609375	-63.004135
4100.585938	-63.090519
4101.562500	-62.402012
4102.539062	-61.276115
4103.515625	-63.715054
4104.492188	-63.403450
4105.468750	-62.409744
4106.445312	-62.572193
4107.421875	-62.945015
4108.398438	-61.300697
4109.375000	-61.447556
4110.351562	-61.936005
4111.328125	-62.555679
4112.304688	-61.288376
4113.281250	-62.194809
4114.257812	-61.214111
4115.234375	-61.928898
4116.210938	-59.713112
4117.187500	-61.478683
4118.164062	-62.913197
4119.140625	-61.118446
4120.117188	-62.110367
4121.093750	-61.945225
4122.070312	-61.847569
4123.046875	-61.366814
4124.023438	-61.467190
4125.000000	-62.986042
4125.976562	-62.718800
4126.953125	-62.796616
4127.929688	-61.573971
4128.906250	-61.527779
4129.882812	-60.837444
4130.859375	-60.699783
4131.835938	-61.981434
4132.812500	-61.733887
4133.789062	-61.907524
4134.765625	-62.239243
4135.742188	-61.617657
4136.718750	-61.585182
4137.695312	-62.434811
4138.671875	-62.704208
4139.648438	-60.095795
4140.625000	-61.667305
4141.601562	-62.681534
4142.578125	-63.503857
4143.554688	-62.019497
4144.531250	-62.584476
4145.507812	-61.373985
4146.484375	-60.209747
4147.460938	-61.493542
4148.437500	-63.020279
4149.414062	-62.033195
4150.390625	-61.689823
4151.367188	-61.819946
4152.343750	-63.451397
4153.320312	-62.679920
4154.296875	-62.490990
4155.273438	-63.159248
4156.250000	-62.257504
4157.226562	-62.674793
4158.203125	-61.435093
4159.179688	-63.465305
4160.156250	-62.149857
4161.132812	-60.655869
4162.109375	-61.241585
4163.085938	-61.980469
4164.062500	-61.557995
4165.039062	-61.682049
4166.015625	-62.430073
4166.992188	-63.021523
4167.968750	-62.561150
4168.945312	-61.735416
4169.921875	-62.070004
4170.898438	-61.452301
4171.875000	-61.852142
4172.851562	-60.672298
4173.828125	-63.214325
4174.804688	-61.768780
4175.781250	-61.262985
4176.757812	-61.761631
4177.734375	-61.445698
4178.710938	-62.686436
4179.687500	-62.331573
4180.664062	-61.479660
4181.640625	-63.489063
4182.617188	-62.251858
4183.593750	-59.982269
4184.570312	-61.903629
4185.546875	-61.352554
4186.523438	-61.117157
4187.500000	-62.023777
4188.476562	-63.435688
4189.453125	-63.253448
4190.429688	-62.027321
4191.406250	-60.961292
4192.382812	-61.402870
4193.359375	-61.292061
4194.335938	-60.549782
4195.312500	-62.669464
4196.289062	-62.883873
4197.265625	-62.142750
4198.242188	-64.242554
4199.218750	-61.561146
4200.195312	-61.886631
4201.171875	-61.081310
4202.148438	-62.746002
4203.125000	-61.567715
4204.101562	-61.978252
4205.078125	-62.770462
4206.054688	-63.079529
4207.031250	-61.478924
4208.007812	-61.447083
4208.984375	-61.578716
4209.960938	-60.566357
4210.937500	-61.422916
4211.914062	-61.516949
4212.890625	-62.227833
4213.867188	-62.470058
4214.843750	-60.567562
4215.820312	-61.442081
4216.796875	-63.273861
4217.773438	-62.789562
4218.750000	-62.572216
4219.726562	-62.566116
4220.703125	-61.909657
4221.679688	-61.828735
4222.656250	-62.813396
4223.632812	-63.225300
4224.609375	-60.908398
4225.585938	-61.400921
4226.562500	-62.340202
4227.539062	-62.998119
4228.515625	-61.743111
4229.492188	-63.146317
4230.468750	-63.106644
4231.445312	-61.536289
4232.421875	-62.884148
4233.398438	-62.292347
4234.375000	-61.033455
4235.351562	-62.419785
4236.328125	-62.491341
4237.304688	-61.975925
4238.281250	-61.763683
4239.257812	-61.069637
4240.234375	-62.620125
4241.210938	-62.751816
4242.187500	-63.198875
4243.164062	-61.537762
4244.140625	-61.853756
4245.117188	-61.663055
4246.093750	-61.744698
4247.070312	-61.122379
4248.046875	-62.354763
4249.023438	-62.742592
4250.000000	-61.741432
4250.976562	-60.816864
4251.953125	-61.663757
4252.929688	-62.215031
4253.906250	-61.840225
4254.882812	-62.019260
4255.859375	-61.930664
4256.835938	-61.927200
4257.812500	-62.587414
4258.789062	-61.772457
4259.765625	-61.008198
4260.742188	-61.254684
4261.718750	-61.210720
4262.695312	-61.435623
4263.671875	-61.870171
4264.648438	-62.432518
4265.625000	-62.207695
4266.601562	-60.779827
4267.578125	-62.570942
4268.554688	-61.577477
4269.531250	-61.538826
4270.507812	-60.651215
4271.484375	-61.373348
4272.460938	-62.824303
4273.437500	-62.993465
4274.414062	-62.907005
4275.390625	-61.590454
4276.367188	-61.143147
4277.343750	-60.482361
4278.320312	-61.664654
4279.296875	-62.230106
4280.273438	-62.651043
4281.250000	-62.593643
4282.226562	-62.129528
4283.203125	-61.357819
4284.179688	-61.218090
4285.156250	-61.337715
4286.132812	-62.494587
4287.109375	-62.252644
4288.085938	-61.806896
4289.062500	-60.968826
4290.039062	-61.313293
4291.015625	-61.523155
4291.992188	-60.845654
4292.968750	-61.686169
4293.945312	-61.827675
4294.921875	-64.071350
4295.898438	-62.517605
4296.875000	-62.354141
4297.851562	-61.903599
4298.828125	-61.909641
4299.804688	-60.924416
4300.781250	-59.929447
4301.757812	-60.159466
4302.734375	-62.719894
4303.710938	-61.163750
4304.687500	-59.826321
4305.664062	-60.851387
4306.640625	-61.448364
4307.617188	-60.347237
4308.593750	-60.431824
4309.570312	-61.091366
4310.546875	-61.403175
4311.523438	-60.899498
4312.500000	-60.880581
4313.476562	-61.868458
4314.453125	-60.406017
4315.429688	-60.744194
4316.406250	-60.590336
4317.382812	-61.481476
4318.359375	-61.475296
4319.335938	-61.928761
4320.312500	-63.060543
4321.289062	-63.030167
4322.265625	-61.437130
4323.242188	-61.162300
4324.218750	-61.653282
4325.195312	-60.539787
4326.171875	-61.121227
4327.148438	-60.974106
4328.125000	-59.823723
4329.101562	-61.657936
4330.078125	-61.469730
4331.054688	-61.997478
4332.031250	-62.046375
4333.007812	-62.266335
4333.984375	-62.169159
4334.960938	-61.461807
4335.937500	-60.982811
4336.914062	-61.409367
4337.890625	-60.686340
4338.867188	-63.065971
4339.843750	-61.486710
4340.820312	-61.981903
4341.796875	-60.714561
4342.773438	-62.410145
4343.750000	-61.920399
4344.726562	-59.848362
4345.703125	-61.306984
4346.679688	-59.966782
4347.656250	-61.138718
4348.632812	-61.508785
4349.609375	-61.890934
4350.585938	-61.665222
4351.562500	-61.325642
4352.539062	-60.082684
4353.515625	-61.080017
4354.492188	-61.423309
4355.468750	-61.498665
4356.445312	-61.735943
4357.421875	-61.687294
4358.398438	-60.321846
4359.375000	-60.655186
4360.351562	-60.427303
4361.328125	-59.562439
4362.304688	-59.853725
4363.281250	-61.200191
4364.257812	-60.102951
4365.234375	-61.111435
4366.210938	-60.525040
4367.187500	-60.344578
4368.164062	-60.236645
4369.140625	-59.413197
4370.117188	-59.993118
4371.093750	-60.671959
4372.070312	-61.608013
4373.046875	-60.481861
4374.023438	-60.796192
4375.000000	-61.886642
4375.976562	-61.157730
4376.953125	-61.492180
4377.929688	-61.775040
4378.906250	-63.377064
4379.882812	-61.285118
4380.859375	-59.972511
4381.835938	-59.448616
4382.812500	-60.708733
4383.789062	-61.339661
4384.765625	-60.525463
4385.742188	-59.824490
4386.718750	-60.990074
4387.695312	-61.156609
4388.671875	-60.023022
4389.648438	-61.839973
4390.625000	-60.351536
4391.601562	-58.777222
4392.578125	-60.385674
4393.554688	-61.275024
4394.531250	-60.431980
4395.507812	-61.603634
4396.484375	-60.910297
4397.460938	-60.295025
4398.437500	-60.137890
4399.414062	-61.273617
4400.390625	-61.697601
4401.367188	-61.800613
4402.343750	-62.137596
4403.320312	-59.954208
4404.296875	-60.251446
4405.273438	-61.273602
4406.250000	-59.934925
4407.226562	-60.017742
4408.203125	-61.652542
4409.179688	-59.296459
4410.156250	-60.049194
4411.132812	-59.899826
4412.109375	-60.920490
4413.085938	-59.561581
4414.062500	-59.760597
4415.039062	-60.400635
4416.015625	-61.684608
4416.992188	-62.303703
4417.968750	-59.624752
4418.945312	-59.362831
4419.921875	-61.068321
4420.898438	-60.920662
4421.875000	-61.126930
4422.851562	-60.194370
4423.828125	-59.898415
4424.804688	-61.138008
4425.781250	-60.767200
4426.757812	-60.469982
4427.734375	-61.802261
4428.710938	-59.610394
4429.687500	-60.142151
4430.664062	-59.847321
4431.640625	-60.158211
4432.617188	-59.773186
4433.593750	-60.545238
4434.570312	-60.272644
4435.546875	-60.309391
4436.523438	-59.502243
4437.500000	-58.986984
4438.476562	-61.801460
4439.453125	-60.081264
4440.429688	-59.974873
4441.406250	-59.573780
4442.382812	-61.190884
4443.359375	-60.248348
4444.335938	-60.204124
4445.312500	-61.182873
4446.289062	-58.503777
4447.265625	-58.810059
4448.242188	-59.781132
4449.218750	-61.625740
4450.195312	-60.161167
4451.171875	-59.264259
4452.148438	-60.174446
4453.125000	-61.407230
4454.101562	-60.247795
4455.078125	-60.387238
4456.054688	-60.289078
4457.031250	-60.382034
4458.007812	-59.296627
4458.984375	-58.818184
4459.960938	-59.376072
4460.937500	-58.200863
4461.914062	-57.821327
4462.890625	-58.907982
4463.867188	-59.014172
4464.843750	-61.857067
4465.820312	-60.223366
4466.796875	-58.865330
4467.773438	-59.738224
4468.750000	-59.324402
4469.726562	-60.231007
4470.703125	-59.862492
4471.679688	-59.976936
4472.656250	-57.370033
4473.632812	-59.381741
4474.609375	-59.019264
4475.585938	-58.741882
4476.562500	-58.746254
4477.539062	-59.714474
4478.515625	-62.429764
4479.492188	-59.987835
4480.468750	-58.950764
4481.445312	-58.420914
4482.421875	-59.072563
4483.398438	-59.384415
4484.375000	-58.367706
4485.351562	-59.778870
4486.328125	-60.251808
4487.304688	-59.689548
4488.281250	-60.181183
4489.257812	-59.100033
4490.234375	-58.543053
4491.210938	-58.481216
4492.187500	-59.447239
4493.164062	-59.288811
4494.140625	-58.660427
4495.117188	-59.855316
4496.093750	-59.478165
4497.070312	-59.162037
4498.046875	-60.485031
4499.023438	-59.358105
4500.000000	-59.100567
4500.976562	-59.956493
4501.953125	-59.841000
4502.929688	-59.032749
4503.906250	-59.135178
4504.882812	-59.618404
4505.859375	-59.213890
4506.835938	-59.665207
4507.812500	-58.731514
4508.789062	-60.776115
4509.765625	-60.016937
4510.742188	-59.153168
4511.718750	-57.426617
4512.695312	-59.997303
4513.671875	-58.418915
4514.648438	-59.492546
4515.625000	-58.972672
4516.601562	-60.132008
4517.578125	-60.006641
4518.554688	-58.376110
4519.531250	-58.752701
4520.507812	-59.748772
4521.484375	-59.379196
4522.460938	-60.557709
4523.437500	-60.171124
4524.414062	-58.921452
4525.390625	-59.131115
4526.367188	-59.481098
4527.343750	-58.765701
4528.320312	-60.152527
4529.296875	-60.157719
4530.273438	-59.822277
4531.250000	-59.446968
4532.226562	-58.899483
4533.203125	-58.734936
4534.179688	-58.844673
4535.156250	-59.277145
4536.132812	-59.555485
4537.109375	-59.998943
4538.085938	-59.028767
4539.062500	-59.009335
4540.039062	-59.543659
4541.015625	-60.079391
4541.992188	-60.301193
4542.968750	-60.608822
4543.945312	-60.695866
4544.921875	-60.358265
4545.898438	-62.694336
4546.875000	-59.500019
4547.851562	-58.271023
4548.828125	-59.620365
4549.804688	-59.104420
4550.781250	-58.914806
4551.757812	-60.249134
4552.734375	-60.077522
4553.710938	-59.385391
4554.687500	-60.084496
4555.664062	-59.586975
4556.640625	-59.930183
4557.617188	-61.085457
4558.593750	-60.490978
4559.570312	-59.014565
4560.546875	-59.164192
4561.523438	-59.098637
4562.500000	-61.018650
4563.476562	-61.426193
4564.453125	-61.376839
4565.429688	-59.470264
4566.406250	-60.039055
4567.382812	-60.384121
4568.359375	-61.102970
4569.335938	-60.939266
4570.312500	-60.569889
4571.289062	-60.531296
4572.265625	-59.622646
4573.242188	-59.326694
4574.218750	-58.843864
4575.195312	-59.593475
4576.171875	-60.190845
4577.148438	-59.729336
4578.125000	-59.021267
4579.101562	-60.482941
4580.078125	-61.153629
4581.054688	-59.720829
4582.031250	-58.947136
4583.007812	-61.539394
4583.984375	-61.001816
4584.960938	-59.893932
4585.937500	-59.539902
4586.914062	-59.923462
4587.890625	-59.354374
4588.867188	-60.315735
4589.843750	-59.393642
4590.820312	-59.729542
4591.796875	-61.390961
4592.773438	-59.843376
4593.750000	-60.258839
4594.726562	-57.312443
4595.703125	-55.195168
4596.679688	-56.325855
4597.656250	-57.400608
4598.632812	-57.589111
4599.609375	-56.317181
4600.585938	-59.870064
4601.562500	-57.221565
4602.539062	-59.329288
4603.515625	-58.861248
4604.492188	-59.037407
4605.468750	-57.176846
4606.445312	-58.396008
4607.421875	-59.060501
4608.398438	-59.348934
4609.375000	-59.003582
4610.351562	-58.765640
4611.328125	-59.651703
4612.304688	-59.491386
4613.281250	-58.895027
4614.257812	-59.963078
4615.234375	-58.229710
4616.210938	-59.299679
4617.187500	-58.391968
4618.164062	-57.679161
4619.140625	-58.890244
4620.117188	-55.655907
4621.093750	-56.996914
4622.070312	-56.596851
4623.046875	-59.561581
4624.023438	-59.852833
4625.000000	-60.248695
4625.976562	-60.929981
4626.953125	-60.463596
4627.929688	-59.965202
4628.906250	-59.796768
4629.882812	-59.591248
4630.859375	-59.672253
4631.835938	-59.700352
4632.812500	-60.189808
4633.789062	-60.020374
4634.765625	-60.479656
4635.742188	-59.557789
4636.718750	-59.659870
4637.695312	-60.880325
4638.671875	-60.950680
4639.648438	-60.029934
4640.625000	-59.351490
4641.601562	-59.713726
4642.578125	-59.000015
4643.554688	-58.661007
4644.531250	-58.767975
4645.507812	-59.995914
4646.484375	-59.876534
4647.460938	-60.853806
4648.437500	-60.347214
4649.414062	-61.071186
4650.390625	-61.132160
4651.367188	-60.112179
4652.343750	-61.368797
4653.320312	-59.162193
4654.296875	-59.734200
4655.273438	-61.029541
4656.250000	-58.477119
4657.226562	-58.886650
4658.203125	-60.252483
4659.179688	-59.699875
4660.156250	-60.050537
4661.132812	-60.595657
4662.109375	-60.024490
4663.085938	-59.867008
4664.062500	-58.891178
4665.039062	-58.577534
4666.015625	-59.668346
4666.992188	-60.389885
4667.968750	-58.047329
4668.945312	-59.654289
4669.921875	-58.379845
4670.898438	-58.721302
4671.875000	-58.886829
4672.851562	-61.614338
4673.828125	-60.145988
4674.804688	-60.156334
4675.781250	-58.136795
4676.757812	-60.280842
4677.734375	-59.402290
4678.710938	-59.942841
4679.687500	-59.990078
4680.664062	-59.554569
4681.640625	-59.854244
4682.617188	-60.521713
4683.593750	-60.054913
4684.570312	-59.618011
4685.546875	-59.527111
4686.523438	-59.539612
4687.500000	-60.643021
4688.476562	-58.734150
4689.453125	-57.114361
4690.429688	-58.198494
4691.406250	-59.208466
4692.382812	-60.984306
4693.359375	-59.630844
4694.335938	-60.084953
4695.312500	-59.101578
4696.289062	-60.029095
4697.265625	-59.306591
4698.242188	-59.247437
4699.218750	-59.918270
4700.195312	-60.801537
4701.171875	-60.716915
4702.148438	-60.414021
4703.125000	-60.181755
4704.101562	-60.971123
4705.078125	-59.626003
4706.054688	-61.914204
4707.031250	-61.287788
4708.007812	-61.827759
4708.984375	-60.388851
4709.960938	-59.759991
4710.937500	-60.886253
4711.914062	-61.188683
4712.890625	-59.966045
4713.867188	-59.147659
4714.843750	-61.225315
4715.820312	-60.071495
4716.796875	-61.316338
4717.773438	-61.267250
4718.750000	-60.273849
4719.726562	-60.775757
4720.703125	-59.983791
4721.679688	-60.897957
4722.656250	-60.376251
4723.632812	-62.257874
4724.609375	-60.485683
4725.585938	-60.954235
4726.562500	-61.739834
4727.539062	-60.789093
4728.515625	-61.697971
4729.492188	-61.041649
4730.468750	-60.404118
4731.445312	-62.717415
4732.421875	-61.581345
4733.398438	-60.746231
4734.375000	-60.296173
4735.351562	-61.371544
4736.328125	-63.692581
4737.304688	-61.887177
4738.281250	-61.579800
4739.257812	-61.760311
4740.234375	-60.973850
4741.210938	-61.439423
4742.187500	-62.346386
4743.164062	-62.917221
4744.140625	-61.366043
4745.117188	-60.176113
4746.093750	-62.223450
4747.070312	-61.423927
4748.046875	-62.241001
4749.023438	-61.495358
4750.000000	-61.200592
4750.976562	-61.037746
4751.953125	-61.536362
4752.929688	-62.836685
4753.906250	-61.104530
4754.882812	-61.002525
4755.859375	-61.220665
4756.835938	-62.069305
4757.812500	-60.932522
4758.789062	-61.845158
4759.765625	-61.853886
4760.742188	-62.394901
4761.718750	-60.717201
4762.695312	-62.099239
4763.671875	-60.595066
4764.648438	-61.607811
4765.625000	-61.051495
4766.601562	-61.207729
4767.578125	-61.769894
4768.554688	-61.933399
4769.531250	-60.846157
4770.507812	-61.656261
4771.484375	-62.021633
4772.460938	-62.348824
4773.437500	-62.009697
4774.414062	-62.976711
4775.390625	-63.068939
4776.367188	-62.860344
4777.343750	-61.559963
4778.320312	-62.270733
4779.296875	-60.631271
4780.273438	-60.274426
4781.250000	-63.918655
4782.226562	-63.608784
4783.203125	-61.445057
4784.179688	-61.947849
4785.156250	-60.798721
4786.132812	-61.574486
4787.109375	-61.851627
4788.085938	-61.264954
4789.062500	-61.781479
4790.039062	-62.449169
4791.015625	-60.192024
4791.992188	-61.642239
4792.968750	-62.505169
4793.945312	-61.338139
4794.921875	-61.764137
4795.898438	-62.193298
4796.875000	-60.638474
4797.851562	-61.199547
4798.828125	-61.436226
4799.804688	-61.070103
4800.781250	-61.687603
4801.757812	-61.490223
4802.734375	-62.639565
4803.710938	-62.436539
4804.687500	-60.506794
4805.664062	-62.319393
4806.640625	-61.239120
4807.617188	-61.547478
4808.593750	-60.812939
4809.570312	-61.644833
4810.546875	-61.491673
4811.523438	-61.858894
4812.500000	-61.985767
4813.476562	-62.039017
4814.453125	-61.828911
4815.429688	-61.936337
4816.406250	-61.733547
4817.382812	-62.403343
4818.359375	-61.154011
4819.335938	-61.790199
4820.312500	-60.659946
4821.289062	-60.502453
4822.265625	-60.786064
4823.242188	-61.228443
4824.218750	-61.176952
4825.195312	-60.625076
4826.171875	-59.471020
4827.148438	-62.277626
4828.125000	-61.338257
4829.101562	-60.779583
4830.078125	-61.840202
4831.054688	-63.064781
4832.031250	-63.570213
4833.007812	-60.831387
4833.984375	-61.831161
4834.960938	-60.874790
4835.937500	-62.752071
4836.914062	-60.889698
4837.890625	-60.919071
4838.867188	-63.141148
4839.843750	-63.163879
4840.820312	-61.369579
4841.796875	-61.674786
4842.773438	-61.377472
4843.750000	-60.121811
4844.726562	-60.387428
4845.703125	-60.355343
4846.679688	-62.312218
4847.656250	-62.220448
4848.632812	-61.922337
4849.609375	-61.917740
4850.585938	-61.084789
4851.562500	-61.465809
4852.539062	-59.698296
4853.515625	-60.109169
4854.492188	-61.247307
4855.468750	-60.378891
4856.445312	-62.349506
4857.421875	-60.852097
4858.398438	-62.728508
4859.375000	-62.182453
4860.351562	-61.351692
4861.328125	-62.595840
4862.304688	-64.792404
4863.281250	-63.450657
4864.257812	-61.682106
4865.234375	-62.164433
4866.210938	-60.364761
4867.187500	-61.188080
4868.164062	-62.695686
4869.140625	-60.852329
4870.117188	-61.227768
4871.093750	-61.671341
4872.070312	-61.398254
4873.046875	-62.641094
4874.023438	-62.662842
4875.000000	-61.466751
4875.976562	-61.948692
4876.953125	-61.752380
4877.929688	-61.607994
4878.906250	-61.666847
4879.882812	-61.714966
4880.859375	-62.047501
4881.835938	-61.411072
4882.812500	-62.799557
4883.789062	-61.900856
4884.765625	-63.296001
4885.742188	-62.604332
4886.718750	-61.721619
4887.695312	-62.576012
4888.671875	-63.110989
4889.648438	-62.140598
4890.625000	-60.510975
4891.601562	-62.325935
4892.578125	-62.773434
4893.554688	-62.435322
4894.531250	-62.632160
4895.507812	-60.393116
4896.484375	-60.548466
4897.460938	-60.462532
4898.437500	-61.087368
4899.414062	-60.900692
4900.390625	-62.645943
4901.367188	-62.565033
4902.343750	-61.153080
4903.320312	-61.051666
4904.296875	-61.453976
4905.273438	-63.130276
4906.250000	-61.546345
4907.226562	-62.223541
4908.203125	-62.175289
4909.179688	-62.508389
4910.156250	-61.814770
4911.132812	-61.877483
4912.109375	-62.203983
4913.085938	-61.065670
4914.062500	-62.244781
4915.039062	-61.817513
4916.015625	-61.789581
4916.992188	-61.728638
4917.968750	-63.127632
4918.945312	-61.706913
4919.921875	-60.970940
4920.898438	-62.036682
4921.875000	-61.844593
4922.851562	-63.960629
4923.828125	-64.020195
4924.804688	-61.963001
4925.781250	-62.320255
4926.757812	-61.763390
4927.734375	-62.943058
4928.710938	-61.854836
4929.687500	-61.375702
4930.664062	-62.793610
4931.640625	-61.106998
4932.617188	-62.550522
4933.593750	-61.850609
4934.570312	-60.407772
4935.546875	-62.099228
4936.523438	-62.516090
4937.500000	-62.009548
4938.476562	-61.199123
4939.453125	-61.351254
4940.429688	-62.706833
4941.406250	-62.912014
4942.382812	-62.052761
4943.359375	-63.913643
4944.335938	-62.276279
4945.312500	-62.088276
4946.289062	-62.206478
4947.265625	-61.899948
4948.242188	-60.613853
4949.218750	-62.411903
4950.195312	-61.917130
4951.171875	-62.744976
4952.148438	-61.711567
4953.125000	-62.483471
4954.101562	-60.718433
4955.078125	-61.877651
4956.054688	-61.879463
4957.031250	-61.416260
4958.007812	-62.547443
4958.984375	-63.079597
4959.960938	-61.838394
4960.937500	-61.960716
4961.914062	-61.748028
4962.890625	-61.539902
4963.867188	-62.357304
4964.843750	-62.323635
4965.820312	-62.075974
4966.796875	-62.049976
4967.773438	-61.826836
4968.750000	-61.159588
4969.726562	-61.294628
4970.703125	-61.976501
4971.679688	-62.426792
4972.656250	-63.147232
4973.632812	-61.965714
4974.609375	-61.993092
4975.585938	-63.502666
4976.562500	-62.127167
4977.539062	-61.190506
4978.515625	-61.153049
4979.492188	-61.191284
4980.468750	-61.699398
4981.445312	-61.166622
4982.421875	-62.577000
4983.398438	-62.207310
4984.375000	-61.094551
4985.351562	-61.750423
4986.328125	-62.203384
4987.304688	-62.296970
4988.281250	-61.754089
4989.257812	-63.781544
4990.234375	-61.971523
4991.210938	-63.815266
4992.187500	-61.847561
4993.164062	-61.210938
4994.140625	-61.974216
4995.117188	-62.941818
4996.093750	-62.775932
4997.070312	-62.840824
4998.046875	-63.146656
4999.023438	-60.743488
5000.000000	-61.684750
5000.976562	-61.245808
5001.953125	-62.030518
5002.929688	-61.296757
5003.906250	-61.919380
5004.882812	-62.386299
5005.859375	-63.158020
5006.835938	-64.626190
5007.812500	-63.206314
5008.789062	-63.533066
5009.765625	-63.168339
5010.742188	-63.050930
5011.718750	-62.238258
5012.695312	-61.705276
5013.671875	-62.066765
5014.648438	-61.880165
5015.625000	-61.606712
5016.601562	-61.714046
5017.578125	-63.134930
5018.554688	-64.227036
5019.531250	-63.477203
5020.507812	-62.797413
5021.484375	-63.322773
5022.460938	-61.682194
5023.437500	-60.817009
5024.414062	-61.197319
5025.390625	-61.367710
5026.367188	-63.470253
5027.343750	-62.160740
5028.320312	-60.649139
5029.296875	-62.810959
5030.273438	-62.903572
5031.250000	-62.895790
5032.226562	-62.445923
5033.203125	-62.459457
5034.179688	-61.412632
5035.156250	-62.336575
5036.132812	-62.593075
5037.109375	-61.518726
5038.085938	-63.886368
5039.062500	-63.317593
5040.039062	-62.830490
5041.015625	-63.385159
5041.992188	-63.386539
5042.968750	-63.530567
5043.945312	-65.053612
5044.921875	-62.629093
5045.898438	-62.634735
5046.875000	-63.538357
5047.851562	-61.723454
5048.828125	-62.623268
5049.804688	-62.735428
5050.781250	-61.688728
5051.757812	-63.167614
5052.734375	-62.350845
5053.710938	-61.979824
5054.687500	-63.655605
5055.664062	-64.306824
5056.640625	-63.725269
5057.617188	-62.256157
5058.593750	-61.894882
5059.570312	-61.912376
5060.546875	-62.893818
5061.523438	-62.543919
5062.500000	-62.355145
5063.476562	-62.325920
5064.453125	-63.327534
5065.429688	-62.041363
5066.406250	-61.695538
5067.382812	-61.565662
5068.359375	-62.399544
5069.335938	-61.919300
5070.312500	-62.371490
5071.289062	-64.297844
5072.265625	-62.955158
5073.242188	-62.604889
5074.218750	-62.808556
5075.195312	-62.082317
5076.171875	-61.900833
5077.148438	-61.256142
5078.125000	-62.928108
5079.101562	-62.358624
5080.078125	-62.643978
5081.054688	-63.100491
5082.031250	-63.175079
5083.007812	-63.011383
5083.984375	-62.595757
5084.960938	-62.599655
5085.937500	-61.952892
5086.914062	-60.855457
5087.890625	-62.558365
5088.867188	-61.822304
5089.843750	-61.954350
5090.820312	-61.014065
5091.796875	-61.666321
5092.773438	-63.107262
5093.750000	-62.472580
5094.726562	-61.707085
5095.703125	-62.651772
5096.679688	-61.680084
5097.656250	-61.911491
5098.632812	-62.229980
5099.609375	-62.651123
5100.585938	-61.839848
5101.562500	-62.526775
5102.539062	-62.165375
5103.515625	-60.631172
5104.492188	-62.455803
5105.468750	-62.488079
5106.445312	-60.891281
5107.421875	-61.095234
5108.398438	-60.945129
5109.375000	-61.806747
5110.351562	-63.268726
5111.328125	-63.232471
5112.304688	-63.014244
5113.281250	-63.346535
5114.257812	-63.234970
5115.234375	-63.275665
5116.210938	-63.747540
5117.187500	-61.824448
5118.164062	-62.361748
5119.140625	-63.110565
5120.117188	-62.644016
5121.093750	-63.255039
5122.070312	-63.076992
5123.046875	-61.079773
5124.023438	-62.680317
5125.000000	-60.991570
5125.976562	-62.456051
5126.953125	-61.994560
5127.929688	-60.912125
5128.906250	-61.649815
5129.882812	-61.803173
5130.859375	-61.254021
5131.835938	-63.134480
5132.812500	-61.412552
5133.789062	-62.610592
5134.765625	-62.282219
5135.742188	-63.075287
5136.718750	-60.644646
5137.695312	-62.673351
5138.671875	-63.202229
5139.648438	-62.022102
5140.625000	-61.802673
5141.601562	-62.482437
5142.578125	-60.553642
5143.554688	-62.035690
5144.531250	-62.790131
5145.507812	-61.774487
5146.484375	-61.595959
5147.460938	-60.344421
5148.437500	-61.212872
5149.414062	-61.655048
5150.390625	-62.902073
5151.367188	-61.934898
5152.343750	-60.023125
5153.320312	-62.481441
5154.296875	-60.478172
5155.273438	-61.598576
5156.250000	-62.123962
5157.226562	-61.504997
5158.203125	-62.320629
5159.179688	-61.578335
5160.156250	-62.716942
5161.132812	-61.448471
5162.109375	-60.994930
5163.085938	-59.070221
5164.062500	-59.989822
5165.039062	-62.171879
5166.015625	-61.184406
5166.992188	-62.090054
5167.968750	-60.377262
5168.945312	-59.900108
5169.921875	-61.195938
5170.898438	-61.244209
5171.875000	-60.295597
5172.851562	-61.656208
5173.828125	-60.654404
5174.804688	-61.168152
5175.781250	-61.042728
5176.757812	-60.158382
5177.734375	-61.339966
5178.710938	-60.031261
5179.687500	-61.492279
5180.664062	-59.976315
5181.640625	-60.116173
5182.617188	-59.854156
5183.593750	-61.564037
5184.570312	-61.827461
5185.546875	-60.043629
5186.523438	-60.435429
5187.500000	-61.469543
5188.476562	-61.029659
5189.453125	-60.496185
5190.429688	-61.806068
5191.406250	-61.216213
5192.382812	-60.489677
5193.359375	-61.528099
5194.335938	-59.975018
5195.312500	-59.999313
5196.289062	-60.422661
5197.265625	-61.487507
5198.242188	-62.449062
5199.218750	-60.155724
5200.195312	-59.867580
5201.171875	-60.544140
5202.148438	-61.296753
5203.125000	-60.672863
5204.101562	-60.845997
5205.078125	-60.330925
5206.054688	-61.460854
5207.031250	-61.220547
5208.007812	-61.227840
5208.984375	-60.524025
5209.960938	-60.950890
5210.937500	-60.731857
5211.914062	-60.154587
5212.890625	-60.940571
5213.867188	-60.580296
5214.843750	-59.023605
5215.820312	-61.141041
5216.796875	-60.398319
5217.773438	-60.190739
5218.750000	-59.206623
5219.726562	-60.526310
5220.703125	-60.962608
5221.679688	-60.147751
5222.656250	-58.771603
5223.632812	-59.597271
5224.609375	-59.562546
5225.585938	-60.993832
5226.562500	-60.033951
5227.539062	-61.873985
5228.515625	-59.976604
5229.492188	-59.282135
5230.468750	-59.908707
5231.445312	-60.439110
5232.421875	-60.766045
5233.398438	-60.897301
5234.375000	-59.179165
5235.351562	-57.777130
5236.328125	-59.515965
5237.304688	-59.213287
5238.281250	-59.790707
5239.257812	-60.796616
5240.234375	-60.163208
5241.210938	-61.946568
5242.187500	-60.779911
5243.164062	-59.668003
5244.140625	-59.487701
5245.117188	-59.513687
5246.093750	-59.265617
5247.070312	-58.468506
5248.046875	-59.718998
5249.023438	-59.960831
5250.000000	-60.054241
5250.976562	-60.975834
5251.953125	-58.656380
5252.929688	-60.897125
5253.906250	-59.802952
5254.882812	-58.550575
5255.859375	-60.059338
5256.835938	-59.890285
5257.812500	-60.146172
5258.789062	-58.392578
5259.765625	-58.834782
5260.742188	-57.697121
5261.718750	-58.764503
5262.695312	-57.315022
5263.671875	-56.634125
5264.648438	-57.450279
5265.625000	-58.041145
5266.601562	-59.068821
5267.578125	-59.838234
5268.554688	-57.908054
5269.531250	-59.204304
5270.507812	-57.801373
5271.484375	-59.319298
5272.460938	-58.162609
5273.437500	-58.326160
5274.414062	-57.798405
5275.390625	-58.136757
5276.367188	-58.082119
5277.343750	-57.572563
5278.320312	-58.362350
5279.296875	-57.995621
5280.273438	-58.512115
5281.250000	-56.670483
5282.226562	-59.155396
5283.203125	-58.356892
5284.179688	-58.666428
5285.156250	-57.847157
5286.132812	-57.189903
5287.109375	-56.896935
5288.085938	-57.317074
5289.062500	-58.393440
5290.039062	-58.090530
5291.015625	-58.374104
5291.992188	-58.488174
5292.968750	-58.657681
5293.945312	-58.858570
5294.921875	-58.215126
5295.898438	-57.161339
5296.875000	-58.284115
5297.851562	-58.364250
5298.828125	-58.654934
5299.804688	-58.966976
5300.781250	-58.221870
5301.757812	-58.287365
5302.734375	-57.778145
5303.710938	-57.174976
5304.687500	-58.051025
5305.664062	-58.899151
5306.640625	-59.482952
5307.617188	-60.322647
5308.593750	-59.319813
5309.570312	-58.909039
5310.546875	-58.585430
5311.523438	-56.987885
5312.500000	-58.479000
5313.476562	-59.711372
5314.453125	-57.816536
5315.429688	-59.238144
5316.406250	-57.942455
5317.382812	-59.694069
5318.359375	-57.107002
5319.335938	-58.077946
5320.312500	-58.636501
5321.289062	-59.609482
5322.265625	-57.652004
5323.242188	-58.399570
5324.218750	-58.984417
5325.195312	-59.427628
5326.171875	-58.533836
5327.148438	-58.476421
5328.125000	-58.672340
5329.101562	-59.987843
5330.078125	-57.372559
5331.054688	-57.866104
5332.031250	-57.896996
5333.007812	-59.259243
5333.984375	-59.801929
5334.960938	-59.651573
5335.937500	-59.991482
5336.914062	-59.986668
5337.890625	-57.003887
5338.867188	-59.324760
5339.843750	-59.294285
5340.820312	-58.469082
5341.796875	-57.046146
5342.773438	-59.081970
5343.750000	-57.300404
5344.726562	-57.611595
5345.703125	-59.296524
5346.679688	-59.467369
5347.656250	-60.458393
5348.632812	-61.098179
5349.609375	-58.345100
5350.585938	-60.483486
5351.562500	-59.625347
5352.539062	-59.106937
5353.515625	-59.906357
5354.492188	-59.484596
5355.468750	-59.528984
5356.445312	-57.740307
5357.421875	-60.149673
5358.398438	-59.578583
5359.375000	-59.695843
5360.351562	-58.666882
5361.328125	-60.363388
5362.304688	-59.490223
5363.281250	-58.420490
5364.257812	-58.688217
5365.234375	-59.122185
5366.210938	-59.294960
5367.187500	-61.151054
5368.164062	-60.751087
5369.140625	-58.286324
5370.117188	-58.947727
5371.093750	-59.394333
5372.070312	-59.669392
5373.046875	-60.923397
5374.023438	-60.803448
5375.000000	-60.063950
5375.976562	-59.822933
5376.953125	-60.339684
5377.929688	-59.535904
5378.906250	-59.698353
5379.882812	-58.795681
5380.859375	-59.301018
5381.835938	-59.403217
5382.812500	-61.162155
5383.789062	-59.835911
5384.765625	-59.806561
5385.742188	-60.302605
5386.718750	-59.638828
5387.695312	-59.718796
5388.671875	-58.942833
5389.648438	-60.032448
5390.625000	-59.527916
5391.601562	-59.152981
5392.578125	-59.111900
5393.554688	-58.869690
5394.531250	-60.461700
5395.507812	-60.270195
5396.484375	-60.283718
5397.460938	-59.282093
5398.437500	-61.347168
5399.414062	-61.333092
5400.390625	-60.319118
5401.367188	-58.415752
5402.343750	-59.310528
5403.320312	-60.242836
5404.296875	-59.359737
5405.273438	-59.597912
5406.250000	-59.191437
5407.226562	-59.424770
5408.203125	-60.531151
5409.179688	-59.587025
5410.156250	-60.402233
5411.132812	-59.952579
5412.109375	-61.163284
5413.085938	-58.793568
5414.062500	-60.000252
5415.039062	-60.679638
5416.015625	-60.232883
5416.992188	-61.059864
5417.968750	-60.702187
5418.945312	-60.810207
5419.921875	-59.842369
5420.898438	-60.701447
5421.875000	-61.362057
5422.851562	-60.170502
5423.828125	-59.841080
5424.804688	-59.157509
5425.781250	-60.734402
5426.757812	-60.218948
5427.734375	-60.814388
5428.710938	-60.879837
5429.687500	-61.418617
5430.664062	-60.857910
5431.640625	-60.307705
5432.617188	-61.899078
5433.593750	-61.013920
5434.570312	-61.804321
5435.546875	-60.478485
5436.523438	-61.066147
5437.500000	-60.340126
5438.476562	-59.932480
5439.453125	-60.268745
5440.429688	-59.675346
5441.406250	-61.830990
5442.382812	-61.558521
5443.359375	-59.204819
5444.335938	-60.642078
5445.312500	-59.889832
5446.289062	-60.016113
5447.265625	-59.602695
5448.242188	-60.882210
5449.218750	-61.193317
5450.195312	-60.324448
5451.171875	-59.659927
5452.148438	-60.686375
5453.125000	-60.193863
5454.101562	-60.069271
5455.078125	-60.551151
5456.054688	-60.896446
5457.031250	-59.805954
5458.007812	-61.619831
5458.984375	-61.438530
5459.960938	-61.150612
5460.937500	-60.034363
5461.914062	-60.698620
5462.890625	-58.825813
5463.867188	-61.025307
5464.843750	-60.564983
5465.820312	-59.481316
5466.796875	-61.374592
5467.773438	-59.755157
5468.750000	-60.940212
5469.726562	-60.722706
5470.703125	-60.229362
5471.679688	-60.660084
5472.656250	-60.736881
5473.632812	-60.856850
5474.609375	-60.506027
5475.585938	-59.776817
5476.562500	-60.626545
5477.539062	-59.775139
5478.515625	-59.935005
5479.492188	-59.800728
5480.468750	-60.895859
5481.445312	-60.544964
5482.421875	-61.095020
5483.398438	-61.515476
5484.375000	-61.753082
5485.351562	-59.993042
5486.328125	-59.694027
5487.304688	-59.042023
5488.281250	-61.196949
5489.257812	-61.910233
5490.234375	-61.251450
5491.210938	-62.062637
5492.187500	-60.926090
5493.164062	-59.709232
5494.140625	-59.723221
5495.117188	-58.524597
5496.093750	-59.355400
5497.070312	-58.507225
5498.046875	-59.956669
5499.023438	-61.125561
5500.000000	-61.235180
5500.976562	-58.945831
5501.953125	-60.233788
5502.929688	-59.828243
5503.906250	-60.566372
5504.882812	-60.420517
5505.859375	-60.259487
5506.835938	-60.248951
5507.812500	-60.146114
5508.789062	-60.115543
5509.765625	-60.960747
5510.742188	-60.405735
5511.718750	-61.441151
5512.695312	-62.646961
5513.671875	-60.143944
5514.648438	-60.394085
5515.625000	-59.467270
5516.601562	-60.153076
5517.578125	-59.686035
5518.554688	-58.990051
5519.531250	-59.634914
5520.507812	-60.059467
5521.484375	-60.492908
5522.460938	-61.815170
5523.437500	-60.373489
5524.414062	-60.609852
5525.390625	-60.169483
5526.367188	-59.875217
5527.343750	-59.324955
5528.320312	-59.781696
5529.296875	-61.347561
5530.273438	-60.214005
5531.250000	-59.676105
5532.226562	-61.550400
5533.203125	-61.194408
5534.179688	-61.078300
5535.156250	-62.507626
5536.132812	-61.487762
5537.109375	-60.702984
5538.085938	-61.430332
5539.062500	-61.018360
5540.039062	-59.039307
5541.015625	-58.914825
5541.992188	-59.635788
5542.968750	-61.265541
5543.945312	-61.668324
5544.921875	-60.072071
5545.898438	-60.451080
5546.875000	-61.625679
5547.851562	-60.136581
5548.828125	-59.217995
5549.804688	-59.988056
5550.781250	-59.851582
5551.757812	-59.926517
5552.734375	-59.895428
5553.710938	-59.345531
5554.687500	-59.459290
5555.664062	-59.747837
5556.640625	-61.048767
5557.617188	-61.565533
5558.593750	-60.355240
5559.570312	-59.413296
5560.546875	-60.881390
5561.523438	-60.250340
5562.500000	-59.953415
5563.476562	-60.531563
5564.453125	-60.412434
5565.429688	-61.867805
5566.406250	-59.865768
5567.382812	-60.822807
5568.359375	-61.151623
5569.335938	-61.278919
5570.312500	-60.192039
5571.289062	-58.377991
5572.265625	-58.512409
5573.242188	-58.915661
5574.218750	-58.047066
5575.195312	-58.853794
5576.171875	-60.130733
5577.148438	-61.795322
5578.125000	-60.422253
5579.101562	-59.757313
5580.078125	-60.519241
5581.054688	-61.383224
5582.031250	-60.137104
5583.007812	-59.198551
5583.984375	-59.759678
5584.960938	-60.912647
5585.937500	-60.471169
5586.914062	-60.905575
5587.890625	-60.831749
5588.867188	-59.510246
5589.843750	-59.094166
5590.820312	-59.343323
5591.796875	-58.463215
5592.773438	-58.613853
5593.750000	-58.888268
5594.726562	-59.634262
5595.703125	-58.873310
5596.679688	-59.492165
5597.656250	-59.094864
5598.632812	-59.839821
5599.609375	-59.640209
5600.585938	-60.614437
5601.562500	-61.125195
5602.539062	-58.856674
5603.515625	-59.009583
5604.492188	-59.669453
5605.468750	-59.438507
5606.445312	-59.998993
5607.421875	-58.646610
5608.398438	-60.167099
5609.375000	-60.768291
5610.351562	-60.309204
5611.328125	-59.482681
5612.304688	-58.903507
5613.281250	-60.304745
5614.257812	-57.939201
5615.234375	-59.057880
5616.210938	-59.108803
5617.187500	-59.077366
5618.164062	-60.367554
5619.140625	-59.833122
5620.117188	-59.087364
5621.093750	-60.265743
5622.070312	-60.558563
5623.046875	-60.860405
5624.023438	-59.207809
5625.000000	-59.042763
5625.976562	-57.579002
5626.953125	-57.921036
5627.929688	-57.787750
5628.906250	-58.814117
5629.882812	-59.484550
5630.859375	-59.692829
5631.835938	-58.079632
5632.812500	-58.023170
5633.789062	-58.752644
5634.765625	-57.860802
5635.742188	-58.899101
5636.718750	-58.455128
5637.695312	-57.262379
5638.671875	-57.015678
5639.648438	-58.889423
5640.625000	-57.902020
5641.601562	-58.801872
5642.578125	-57.502792
5643.554688	-56.651630
5644.531250	-58.426277
5645.507812	-58.955631
5646.484375	-58.254784
5647.460938	-58.257282
5648.437500	-56.642334
5649.414062	-57.064705
5650.390625	-57.283081
5651.367188	-57.212761
5652.343750	-57.029648
5653.320312	-57.689480
5654.296875	-57.597519
5655.273438	-58.271080
5656.250000	-57.937786
5657.226562	-56.260254
5658.203125	-57.738579
5659.179688	-55.887913
5660.156250	-56.595299
5661.132812	-57.592106
5662.109375	-56.737606
5663.085938	-55.618893
5664.062500	-56.925270
5665.039062	-57.105511
5666.015625	-57.174587
5666.992188	-56.890072
5667.968750	-57.221088
5668.945312	-56.287823
5669.921875	-56.244305
5670.898438	-55.894047
5671.875000	-56.443935
5672.851562	-56.843105
5673.828125	-54.890686
5674.804688	-57.747597
5675.781250	-57.518620
5676.757812	-57.230556
5677.734375	-56.506161
5678.710938	-56.022152
5679.687500	-55.574562
5680.664062	-54.974998
5681.640625	-56.004089
5682.617188	-55.054913
5683.593750	-55.606792
5684.570312	-55.801937
5685.546875	-56.841942
5686.523438	-54.863487
5687.500000	-55.172718
5688.476562	-55.089504
5689.453125	-56.577869
5690.429688	-57.046665
5691.406250	-56.275341
5692.382812	-56.874638
5693.359375	-54.644279
5694.335938	-54.339481
5695.312500	-56.915512
5696.289062	-55.263271
5697.265625	-55.203255
5698.242188	-55.437992
5699.218750	-57.089455
5700.195312	-55.705837
5701.171875	-56.296333
5702.148438	-56.129398
5703.125000	-54.663639
5704.101562	-54.407909
5705.078125	-54.117409
5706.054688	-54.790745
5707.031250	-56.317242
5708.007812	-55.025131
5708.984375	-54.623447
5709.960938	-55.275490
5710.937500	-55.444519
5711.914062	-57.521240
5712.890625	-57.422497
5713.867188	-53.203274
5714.843750	-53.444431
5715.820312	-56.548721
5716.796875	-55.115093
5717.773438	-55.630093
5718.750000	-55.833252
5719.726562	-55.190166
5720.703125	-55.120579
5721.679688	-55.869625
5722.656250	-55.975956
5723.632812	-55.323139
5724.609375	-55.317448
5725.585938	-55.400566
5726.562500	-54.305878
5727.539062	-53.590458
5728.515625	-55.331276
5729.492188	-55.175388
5730.468750	-55.433319
5731.445312	-55.049477
5732.421875	-54.312260
5733.398438	-56.369247
5734.375000	-55.741261
5735.351562	-57.043259
5736.328125	-55.657806
5737.304688	-53.046288
5738.281250	-52.905609
5739.257812	-56.460533
5740.234375	-55.586243
5741.210938	-54.751358
5742.187500	-55.490555
5743.164062	-56.667282
5744.140625	-57.040398
5745.117188	-57.623425
5746.093750	-54.617615
5747.070312	-54.498585
5748.046875	-54.520958
5749.023438	-54.565037
5750.000000	-54.986877
5750.976562	-54.925861
5751.953125	-55.053528
5752.929688	-55.460999
5753.906250	-53.367493
5754.882812	-54.147861
5755.859375	-55.816525
5756.835938	-54.917366
5757.812500	-54.285370
5758.789062	-54.082275
5759.765625	-54.643406
5760.742188	-56.620262
5761.718750	-55.110703
5762.695312	-55.212715
5763.671875	-53.857079
5764.648438	-54.805237
5765.625000	-55.650711
5766.601562	-56.962502
5767.578125	-56.272747
5768.554688	-55.245716
5769.531250	-55.193455
5770.507812	-53.234962
5771.484375	-54.974728
5772.460938	-54.863804
5773.437500	-55.173412
5774.414062	-54.591335
5775.390625	-54.704967
5776.367188	-54.649101
5777.343750	-54.875778
5778.320312	-54.769051
5779.296875	-54.730446
5780.273438	-54.122078
5781.250000	-53.862560
5782.226562	-55.962650
5783.203125	-54.794083
5784.179688	-54.009148
5785.156250	-54.118496
5786.132812	-54.926319
5787.109375	-55.549866
5788.085938	-56.011700
5789.062500	-55.022308
5790.039062	-56.571022
5791.015625	-56.147667
5791.992188	-54.307625
5792.968750	-54.608856
5793.945312	-54.289555
5794.921875	-53.787689
5795.898438	-54.191502
5796.875000	-55.266861
5797.851562	-55.733391
5798.828125	-55.298855
5799.804688	-56.491825
5800.781250	-55.214931
5801.757812	-54.923279
5802.734375	-54.461292
5803.710938	-52.987522
5804.687500	-54.165394
5805.664062	-54.608154
5806.640625	-55.739281
5807.617188	-54.089901
5808.593750	-55.026031
5809.570312	-54.467964
5810.546875	-55.576927
5811.523438	-55.842968
5812.500000	-55.027626
5813.476562	-55.128460
5814.453125	-55.164948
5815.429688	-54.181820
5816.406250	-55.665215
5817.382812	-55.124710
5818.359375	-55.211929
5819.335938	-56.751461
5820.312500	-54.397182
5821.289062	-54.413330
5822.265625	-55.850849
5823.242188	-55.443562
5824.218750	-56.254875
5825.195312	-55.021927
5826.171875	-55.461540
5827.148438	-55.018127
5828.125000	-55.536713
5829.101562	-54.451824
5830.078125	-55.185570
5831.054688	-55.584846
5832.031250	-54.420078
5833.007812	-55.656532
5833.984375	-55.543175
5834.960938	-55.595665
5835.937500	-55.710499
5836.914062	-53.951275
5837.890625	-54.641281
5838.867188	-56.153664
5839.843750	-57.027328
5840.820312	-57.067142
5841.796875	-54.724136
5842.773438	-54.822529
5843.750000	-55.542618
5844.726562	-55.344189
5845.703125	-55.950405
5846.679688	-55.761223
5847.656250	-55.702320
5848.632812	-56.975380
5849.609375	-55.835094
5850.585938	-56.394402
5851.562500	-56.341297
5852.539062	-56.743641
5853.515625	-56.299755
5854.492188	-55.497620
5855.468750	-56.297523
5856.445312	-56.321098
5857.421875	-56.050106
5858.398438	-53.952904
5859.375000	-56.348080
5860.351562	-56.081970
5861.328125	-55.866180
5862.304688	-57.116463
5863.281250	-56.668720
5864.257812	-56.313652
5865.234375	-56.035164
5866.210938	-56.193157
5867.187500	-56.191620
5868.164062	-56.781696
5869.140625	-55.345020
5870.117188	-54.237736
5871.093750	-56.534554
5872.070312	-55.119843
5873.046875	-56.552780
5874.023438	-57.430798
5875.000000	-58.231564
5875.976562	-56.212643
5876.953125	-56.680145
5877.929688	-55.859230
5878.906250	-57.982635
5879.882812	-55.592094
5880.859375	-56.601398
5881.835938	-57.923580
5882.812500	-57.909485
5883.789062	-58.099243
5884.765625	-57.215996
5885.742188	-55.817127
5886.718750	-57.943497
5887.695312	-57.135796
5888.671875	-56.523800
5889.648438	-56.831776
5890.625000	-57.096428
5891.601562	-56.372841
5892.578125	-55.050755
5893.554688	-55.499763
5894.531250	-57.255348
5895.507812	-57.531578
5896.484375	-57.153507
5897.460938	-57.438019
5898.437500	-56.282684
5899.414062	-57.286507
5900.390625	-57.342789
5901.367188	-56.117565
5902.343750	-56.111458
5903.320312	-57.093319
5904.296875	-58.208454
5905.273438	-57.255264
5906.250000	-56.790215
5907.226562	-55.459034
5908.203125	-56.539314
5909.179688	-56.457253
5910.156250	-57.458221
5911.132812	-57.759132
5912.109375	-57.466999
5913.085938	-55.434311
5914.062500	-56.636562
5915.039062	-57.203640
5916.015625	-56.710426
5916.992188	-56.188747
5917.968750	-58.343575
5918.945312	-56.959690
5919.921875	-57.618710
5920.898438	-58.769753
5921.875000	-58.519863
5922.851562	-56.818836
5923.828125	-55.606758
5924.804688	-57.988865
5925.781250	-57.213509
5926.757812	-56.646584
5927.734375	-57.654984
5928.710938	-56.359299
5929.687500	-56.847454
5930.664062	-57.339058
5931.640625	-56.127701
5932.617188	-56.675720
5933.593750	-56.830700
5934.570312	-55.747944
5935.546875	-54.760250
5936.523438	-55.425674
5937.500000	-57.255638
5938.476562	-54.918907
5939.453125	-55.869347
5940.429688	-57.475628
5941.406250	-57.073807
5942.382812	-57.247147
5943.359375	-57.140049
5944.335938	-56.181770
5945.312500	-56.739468
5946.289062	-56.469143
5947.265625	-57.374866
5948.242188	-58.111801
5949.218750	-57.637550
5950.195312	-57.500828
5951.171875	-57.117626
5952.148438	-55.791058
5953.125000	-56.701466
5954.101562	-55.900856
5955.078125	-56.285854
5956.054688	-55.529953
5957.031250	-54.894524
5958.007812	-55.863373
5958.984375	-55.987217
5959.960938	-56.751019
5960.937500	-56.525665
5961.914062	-57.934254
5962.890625	-56.911919
5963.867188	-58.553833
5964.843750	-56.429131
5965.820312	-56.306282
5966.796875	-56.424465
5967.773438	-56.886456
5968.750000	-56.285000
5969.726562	-56.657215
5970.703125	-57.496056
5971.679688	-57.125118
5972.656250	-56.397270
5973.632812	-57.742477
5974.609375	-56.045380
5975.585938	-55.915550
5976.562500	-56.855164
5977.539062	-55.775597
5978.515625	-55.302227
5979.492188	-56.081436
5980.468750	-55.674969
5981.445312	-57.285091
5982.421875	-56.248856
5983.398438	-56.197559
5984.375000	-57.098381
5985.351562	-57.225697
5986.328125	-56.601391
5987.304688	-56.494980
5988.281250	-58.254772
5989.257812	-58.288498
5990.234375	-56.507240
5991.210938	-56.416805
5992.187500	-57.557869
5993.164062	-57.619541
5994.140625	-57.914333
5995.117188	-57.292511
5996.093750	-57.046913
5997.070312	-56.719879
5998.046875	-55.465633
5999.023438	-54.328026
6000.000000	-54.501987
6000.976562	-55.817177
6001.953125	-55.254932
6002.929688	-56.512051
6003.906250	-56.192757
6004.882812	-54.808392
6005.859375	-56.998032
6006.835938	-57.276344
6007.812500	-56.449348
6008.789062	-54.937679
6009.765625	-56.560005
6010.742188	-57.256744
6011.718750	-58.263714
6012.695312	-58.035007
6013.671875	-56.974773
6014.648438	-56.860744
6015.625000	-55.857014
6016.601562	-56.332005
6017.578125	-57.002270
6018.554688	-56.092293
6019.531250	-54.930187
6020.507812	-56.083645
6021.484375	-55.423153
6022.460938	-56.264111
6023.437500	-56.049393
6024.414062	-56.253994
6025.390625	-57.283409
6026.367188	-56.432632
6027.343750	-54.907974
6028.320312	-56.593494
6029.296875	-54.739887
6030.273438	-55.878860
6031.250000	-55.309238
6032.226562	-55.766705
6033.203125	-56.380093
6034.179688	-56.649170
6035.156250	-55.464905
6036.132812	-56.887886
6037.109375	-54.523724
6038.085938	-54.010513
6039.062500	-55.903240
6040.039062	-56.814407
6041.015625	-56.496670
6041.992188	-55.004597
6042.968750	-56.258530
6043.945312	-56.971458
6044.921875	-56.764355
6045.898438	-56.491539
6046.875000	-57.390392
6047.851562	-55.988689
6048.828125	-55.130630
6049.804688	-55.180462
6050.781250	-55.335121
6051.757812	-54.836220
6052.734375	-55.574516
6053.710938	-55.826912
6054.687500	-56.457691
6055.664062	-57.749573
6056.640625	-56.544540
6057.617188	-55.690754
6058.593750	-55.128239
6059.570312	-54.245892
6060.546875	-54.079926
6061.523438	-55.917168
6062.500000	-54.728390
6063.476562	-56.226238
6064.453125	-56.164162
6065.429688	-55.177086
6066.406250	-55.303116
6067.382812	-57.775967
6068.359375	-56.889626
6069.335938	-55.948128
6070.312500	-54.695251
6071.289062	-55.540474
6072.265625	-55.481804
6073.242188	-54.642849
6074.218750	-56.486385
6075.195312	-57.029980
6076.171875	-56.582939
6077.148438	-55.105202
6078.125000	-57.318035
6079.101562	-55.333023
6080.078125	-53.748669
6081.054688	-53.379463
6082.031250	-54.315704
6083.007812	-55.209713
6083.984375	-55.075634
6084.960938	-54.938572
6085.937500	-55.043087
6086.914062	-54.941067
6087.890625	-55.398144
6088.867188	-56.122936
6089.843750	-56.559822
6090.820312	-54.526154
6091.796875	-54.428085
6092.773438	-55.121586
6093.750000	-54.671474
6094.726562	-54.204456
6095.703125	-54.201309
6096.679688	-54.108356
6097.656250	-55.301296
6098.632812	-56.054691
6099.609375	-53.998329
6100.585938	-55.077995
6101.562500	-53.892403
6102.539062	-53.618069
6103.515625	-53.614471
6104.492188	-55.148945
6105.468750	-53.911587
6106.445312	-53.802357
6107.421875	-53.585396
6108.398438	-53.654121
6109.375000	-55.790867
6110.351562	-53.636017
6111.328125	-53.948658
6112.304688	-53.747444
6113.281250	-53.855850
6114.257812	-53.961948
6115.234375	-54.272896
6116.210938	-53.620323
6117.187500	-52.742657
6118.164062	-53.672180
6119.140625	-53.937172
6120.117188	-54.053207
6121.093750	-53.933792
6122.070312	-54.345173
6123.046875	-53.883839
6124.023438	-53.894917
6125.000000	-53.297989
6125.976562	-55.530716
6126.953125	-53.717247
6127.929688	-55.282097
6128.906250	-56.810360
6129.882812	-53.938938
6130.859375	-53.168854
6131.835938	-53.042328
6132.812500	-52.275578
6133.789062	-53.887089
6134.765625	-53.729580
6135.742188	-53.372913
6136.718750	-54.490799
6137.695312	-54.896900
6138.671875	-54.956036
6139.648438	-54.365803
6140.625000	-54.225845
6141.601562	-54.389118
6142.578125	-53.084343
6143.554688	-53.372849
6144.531250	-51.958576
6145.507812	-51.682068
6146.484375	-52.258728
6147.460938	-52.938774
6148.437500	-52.384026
6149.414062	-52.617352
6150.390625	-55.473850
6151.367188	-55.326916
6152.343750	-53.333580
6153.320312	-52.032879
6154.296875	-52.027615
6155.273438	-52.471851
6156.250000	-52.741272
6157.226562	-53.673111
6158.203125	-54.247089
6159.179688	-55.717220
6160.156250	-54.679848
6161.132812	-53.594006
6162.109375	-54.338337
6163.085938	-54.647350
6164.062500	-52.065037
6165.039062	-54.115791
6166.015625	-53.379848
6166.992188	-50.960800
6167.968750	-51.398067
6168.945312	-52.099655
6169.921875	-52.760490
6170.898438	-52.524368
6171.875000	-54.645267
6172.851562	-55.206947
6173.828125	-54.816868
6174.804688	-53.282166
6175.781250	-52.306618
6176.757812	-52.374138
6177.734375	-53.506535
6178.710938	-54.144619
6179.687500	-54.419659
6180.664062	-55.351391
6181.640625	-53.810249
6182.617188	-54.629360
6183.593750	-54.426281
6184.570312	-52.578854
6185.546875	-52.089302
6186.523438	-53.562935
6187.500000	-54.228539
6188.476562	-52.500191
6189.453125	-54.983295
6190.429688	-53.641266
6191.406250	-52.332191
6192.382812	-51.666420
6193.359375	-52.349579
6194.335938	-53.381664
6195.312500	-54.201283
6196.289062	-51.425514
6197.265625	-52.738380
6198.242188	-52.540215
6199.218750	-54.031517
6200.195312	-53.384132
6201.171875	-53.590546
6202.148438	-54.747349
6203.125000	-55.629417
6204.101562	-56.042149
6205.078125	-54.507084
6206.054688	-53.563667
6207.031250	-52.320450
6208.007812	-53.635265
6208.984375	-52.135399
6209.960938	-52.686432
6210.937500	-54.426792
6211.914062	-52.689453
6212.890625	-53.296692
6213.867188	-51.813168
6214.843750	-53.017345
6215.820312	-54.675316
6216.796875	-53.687420
6217.773438	-52.075764
6218.750000	-53.559029
6219.726562	-54.276211
6220.703125	-52.251671
6221.679688	-52.396042
6222.656250	-53.339092
6223.632812	-53.953876
6224.609375	-54.783504
6225.585938	-55.042671
6226.562500	-56.141167
6227.539062	-54.693840
6228.515625	-53.672779
6229.492188	-53.835670
6230.468750	-54.582512
6231.445312	-52.100040
6232.421875	-52.090569
6233.398438	-52.884590
6234.375000	-52.861198
6235.351562	-54.403709
6236.328125	-54.593475
6237.304688	-53.467915
6238.281250	-53.221535
6239.257812	-52.526073
6240.234375	-52.971214
6241.210938	-52.187263
6242.187500	-52.731171
6243.164062	-53.773254
6244.140625	-55.020569
6245.117188	-53.534328
6246.093750	-52.762737
6247.070312	-54.800262
6248.046875	-52.556126
6249.023438	-52.370972
6250.000000	-54.029110
6250.976562	-51.190144
6251.953125	-51.776958
6252.929688	-51.646786
6253.906250	-52.415493
6254.882812	-52.363628
6255.859375	-52.097103
6256.835938	-51.565159
6257.812500	-53.394939
6258.789062	-54.823193
6259.765625	-55.109291
6260.742188	-51.892677
6261.718750	-52.999836
6262.695312	-52.595898
6263.671875	-52.554291
6264.648438	-52.887989
6265.625000	-53.110962
6266.601562	-53.792320
6267.578125	-52.399723
6268.554688	-51.815804
6269.531250	-51.269344
6270.507812	-50.876465
6271.484375	-52.447563
6272.460938	-52.663567
6273.437500	-52.510727
6274.414062	-53.248554
6275.390625	-53.270142
6276.367188	-52.777870
6277.343750	-54.452358
6278.320312	-52.779556
6279.296875	-52.585670
6280.273438	-52.781784
6281.250000	-53.536556
6282.226562	-50.357899
6283.203125	-53.181259
6284.179688	-52.015499
6285.156250	-52.863358
6286.132812	-52.910542
6287.109375	-52.245480
6288.085938	-54.885201
6289.062500	-52.890316
6290.039062	-51.934994
6291.015625	-51.889324
6291.992188	-52.743465
6292.968750	-50.811993
6293.945312	-52.241611
6294.921875	-52.235878
6295.898438	-51.501289
6296.875000	-52.509594
6297.851562	-53.484875
6298.828125	-54.398842
6299.804688	-53.745850
6300.781250	-51.605255
6301.757812	-53.513748
6302.734375	-54.018505
6303.710938	-51.915318
6304.687500	-52.356781
6305.664062	-51.741188
6306.640625	-51.029770
6307.617188	-52.596119
6308.593750	-51.939781
6309.570312	-53.276356
6310.546875	-52.586826
6311.523438	-52.333313
6312.500000	-52.215031
6313.476562	-52.997238
6314.453125	-51.750961
6315.429688	-52.827736
6316.406250	-51.140251
6317.382812	-51.580780
6318.359375	-53.362846
6319.335938	-51.318913
6320.312500	-53.532196
6321.289062	-53.289318
6322.265625	-52.326378
6323.242188	-55.121113
6324.218750	-53.272987
6325.195312	-52.018532
6326.171875	-52.142506
6327.148438	-52.577187
6328.125000	-50.953754
6329.101562	-51.114513
6330.078125	-52.344917
6331.054688	-51.596149
6332.031250	-51.988686
6333.007812	-51.861973
6333.984375	-51.404160
6334.960938	-51.064114
6335.937500	-52.269722
6336.914062	-52.515827
6337.890625	-53.380280
6338.867188	-53.683033
6339.843750	-53.408215
6340.820312	-51.510704
6341.796875	-51.164352
6342.773438	-51.754570
6343.750000	-53.136074
6344.726562	-53.946056
6345.703125	-52.075233
6346.679688	-52.261780
6347.656250	-50.800594
6348.632812	-51.481625
6349.609375	-51.788334
6350.585938	-50.466072
6351.562500	-50.460720
6352.539062	-50.688560
6353.515625	-51.665863
6354.492188	-50.884144
6355.468750	-49.792843
6356.445312	-50.015881
6357.421875	-52.092110
6358.398438	-52.540859
6359.375000	-51.797279
6360.351562	-52.685009
6361.328125	-52.016357
6362.304688	-53.620975
6363.281250	-52.502975
6364.257812	-51.208607
6365.234375	-52.533447
6366.210938	-53.082638
6367.187500	-51.478870
6368.164062	-52.166142
6369.140625	-51.042839
6370.117188	-50.519356
6371.093750	-51.445545
6372.070312	-52.078857
6373.046875	-51.869061
6374.023438	-50.685631
6375.000000	-51.830296
6375.976562	-51.161518
6376.953125	-51.288967
6377.929688	-51.095139
6378.906250	-51.681797
6379.882812	-52.311310
6380.859375	-52.408829
6381.835938	-53.019466
6382.812500	-53.211933
6383.789062	-51.845726
6384.765625	-51.275726
6385.742188	-53.500847
6386.718750	-52.808277
6387.695312	-51.648060
6388.671875	-51.190403
6389.648438	-51.884171
6390.625000	-51.028900
6391.601562	-51.525200
6392.578125	-52.093601
6393.554688	-51.159885
6394.531250	-51.136845
6395.507812	-51.508980
6396.484375	-51.861694
6397.460938	-53.877964
6398.437500	-52.486656
6399.414062	-54.284458
6400.390625	-53.920589
6401.367188	-54.041622
6402.343750	-50.851166
6403.320312	-52.240593
6404.296875	-51.534626
6405.273438	-52.481705
6406.250000	-49.632549
6407.226562	-50.188988
6408.203125	-51.424400
6409.179688	-52.623898
6410.156250	-52.601830
6411.132812	-51.066868
6412.109375	-52.920097
6413.085938	-51.931606
6414.062500	-52.133816
6415.039062	-51.845943
6416.015625	-53.983593
6416.992188	-52.532421
6417.968750	-49.828491
6418.945312	-50.233536
6419.921875	-53.050533
6420.898438	-51.154533
6421.875000	-52.312263
6422.851562	-52.465469
6423.828125	-51.284451
6424.804688	-51.519875
6425.781250	-50.972660
6426.757812	-51.491467
6427.734375	-50.559879
6428.710938	-51.018314
6429.687500	-52.838783
6430.664062	-51.742455
6431.640625	-52.131523
6432.617188	-51.523708
6433.593750	-51.610077
6434.570312	-51.791203
6435.546875	-53.502739
6436.523438	-53.493698
6437.500000	-52.046341
6438.476562	-54.544197
6439.453125	-51.994625
6440.429688	-50.017429
6441.406250	-52.010201
6442.382812	-52.216915
6443.359375	-51.181232
6444.335938	-50.407906
6445.312500	-50.718189
6446.289062	-51.325172
6447.265625	-49.549927
6448.242188	-50.627590
6449.218750	-51.385380
6450.195312	-51.395126
6451.171875	-50.796009
6452.148438	-50.614098
6453.125000	-51.752777
6454.101562	-51.647709
6455.078125	-52.073673
6456.054688	-51.194023
6457.031250	-54.035618
6458.007812	-51.776081
6458.984375	-51.679749
6459.960938	-52.166016
6460.937500	-52.651512
6461.914062	-51.331100
6462.890625	-52.895847
6463.867188	-51.670334
6464.843750	-51.978085
6465.820312	-49.814518
6466.796875	-50.966106
6467.773438	-51.457085
6468.750000	-50.166599
6469.726562	-47.913631
6470.703125	-51.854965
6471.679688	-52.645870
6472.656250	-51.688282
6473.632812	-51.585686
6474.609375	-50.703079
6475.585938	-52.174549
6476.562500	-51.104164
6477.539062	-50.823524
6478.515625	-52.960091
6479.492188	-52.100143
6480.468750	-52.170605
6481.445312	-51.921783
6482.421875	-51.751213
6483.398438	-52.133785
6484.375000	-50.909683
6485.351562	-52.235237
6486.328125	-52.199326
6487.304688	-49.189030
6488.281250	-49.602093
6489.257812	-49.581821
6490.234375	-50.674831
6491.210938	-50.291832
6492.187500	-51.898914
6493.164062	-51.225376
6494.140625	-50.892815
6495.117188	-51.611458
6496.093750	-52.277927
6497.070312	-51.478924
6498.046875	-50.568874
6499.023438	-51.222126
6500.000000	-51.825111
6500.976562	-50.777592
6501.953125	-51.313160
6502.929688	-52.030750
6503.906250	-49.962349
6504.882812	-50.626839
6505.859375	-50.431122
6506.835938	-51.294640
6507.812500	-50.748924
6508.789062	-47.977398
6509.765625	-49.075962
6510.742188	-47.029118
6511.718750	-47.168083
6512.695312	-49.780796
6513.671875	-49.719166
6514.648438	-51.841183
6515.625000	-49.233982
6516.601562	-49.456841
6517.578125	-52.221287
6518.554688	-53.745232
6519.531250	-51.502850
6520.507812	-50.169807
6521.484375	-51.035950
6522.460938	-51.025219
6523.437500	-50.660217
6524.414062	-51.909660
6525.390625	-51.111423
6526.367188	-49.634003
6527.343750	-49.318596
6528.320312	-51.601032
6529.296875	-52.715755
6530.273438	-49.855663
6531.250000	-50.306931
6532.226562	-49.907005
6533.203125	-50.750553
6534.179688	-51.477360
6535.156250	-52.186207
6536.132812	-51.677341
6537.109375	-51.618843
6538.085938	-50.288696
6539.062500	-50.708633
6540.039062	-51.578403
6541.015625	-52.122322
6541.992188	-50.161373
6542.968750	-50.533955
6543.945312	-50.703712
6544.921875	-51.637001
6545.898438	-49.884525
6546.875000	-51.508938
6547.851562	-49.262821
6548.828125	-51.035748
6549.804688	-50.698383
6550.781250	-52.715076
6551.757812	-50.148510
6552.734375	-48.266655
6553.710938	-51.340607
6554.687500	-52.098606
6555.664062	-50.598766
6556.640625	-50.445255
6557.617188	-49.641857
6558.593750	-50.096832
6559.570312	-51.057129
6560.546875	-49.342072
6561.523438	-50.911739
6562.500000	-50.366890
6563.476562	-49.974430
6564.453125	-50.325645
6565.429688	-50.069401
6566.406250	-50.371181
6567.382812	-50.468716
6568.359375	-51.565510
6569.335938	-50.357838
6570.312500	-49.669079
6571.289062	-50.075966
6572.265625	-50.817989
6573.242188	-50.264462
6574.218750	-49.683506
6575.195312	-48.382198
6576.171875	-48.623840
6577.148438	-51.463528
6578.125000	-51.102871
6579.101562	-51.055454
6580.078125	-50.362617
6581.054688	-49.408073
6582.031250	-51.067635
6583.007812	-49.403072
6583.984375	-50.966061
6584.960938	-47.759193
6585.937500	-47.723839
6586.914062	-49.676422
6587.890625	-49.232082
6588.867188	-49.944000
6589.843750	-51.590271
6590.820312	-50.631355
6591.796875	-47.491051
6592.773438	-48.213184
6593.750000	-48.538467
6594.726562	-49.109207
6595.703125	-46.738865
6596.679688	-46.593723
6597.656250	-48.152523
6598.632812	-47.622509
6599.609375	-50.493252
6600.585938	-48.719326
6601.562500	-50.093151
6602.539062	-49.382771
6603.515625	-47.540417
6604.492188	-47.720833
6605.468750	-48.889400
6606.445312	-47.666870
6607.421875	-48.384937
6608.398438	-49.342987
6609.375000	-48.847691
6610.351562	-50.752972
6611.328125	-48.867714
6612.304688	-48.979507
6613.281250	-49.557262
6614.257812	-50.461773
6615.234375	-50.720520
6616.210938	-49.119209
6617.187500	-46.113010
6618.164062	-47.947670
6619.140625	-49.540398
6620.117188	-50.547817
6621.093750	-53.346672
6622.070312	-52.978157
6623.046875	-49.487411
6624.023438	-47.775021
6625.000000	-46.492580
6625.976562	-47.742710
6626.953125	-45.804134
6627.929688	-47.856022
6628.906250	-48.870510
6629.882812	-49.381470
6630.859375	-50.325977
6631.835938	-49.727829
6632.812500	-51.101536
6633.789062	-48.639290
6634.765625	-49.500111
6635.742188	-47.204685
6636.718750	-47.913136
6637.695312	-47.014820
6638.671875	-48.086697
6639.648438	-49.230717
6640.625000	-49.067444
6641.601562	-48.187847
6642.578125	-48.211506
6643.554688	-50.037182
6644.531250	-51.119984
6645.507812	-49.581894
6646.484375	-48.229214
6647.460938	-49.758278
6648.437500	-48.304192
6649.414062	-46.930923
6650.390625	-47.515926
6651.367188	-48.463322
6652.343750	-49.277676
6653.320312	-49.437500
6654.296875	-48.640934
6655.273438	-47.003826
6656.250000	-48.364956
6657.226562	-47.948341
6658.203125	-46.735283
6659.179688	-46.183056
6660.156250	-45.678310
6661.132812	-48.938648
6662.109375	-48.433811
6663.085938	-48.477772
6664.062500	-48.551567
6665.039062	-47.979462
6666.015625	-48.727406
6666.992188	-50.120995
6667.968750	-49.088215
6668.945312	-47.985741
6669.921875	-46.219616
6670.898438	-47.105186
6671.875000	-48.385811
6672.851562	-45.962456
6673.828125	-48.027985
6674.804688	-47.491867
6675.781250	-45.436954
6676.757812	-48.579018
6677.734375	-45.705341
6678.710938	-47.055664
6679.687500	-44.754116
6680.664062	-44.896545
6681.640625	-46.652546
6682.617188	-46.144592
6683.593750	-48.173553
6684.570312	-47.522358
6685.546875	-46.078663
6686.523438	-45.005939
6687.500000	-46.296574
6688.476562	-45.481678
6689.453125	-47.253441
6690.429688	-46.709412
6691.406250	-45.019447
6692.382812	-48.670307
6693.359375	-46.246750
6694.335938	-46.767822
6695.312500	-46.295250
6696.289062	-46.749500
6697.265625	-46.060551
6698.242188	-45.725136
6699.218750	-46.542435
6700.195312	-46.774597
6701.171875	-50.152668
6702.148438	-46.352512
6703.125000	-45.377541
6704.101562	-46.867496
6705.078125	-49.425259
6706.054688	-46.321560
6707.031250	-45.490944
6708.007812	-46.440517
6708.984375	-46.104191
6709.960938	-46.614143
6710.937500	-45.106110
6711.914062	-44.183559
6712.890625	-45.573532
6713.867188	-47.078228
6714.843750	-46.599918
6715.820312	-45.827099
6716.796875	-46.518356
6717.773438	-46.804764
6718.750000	-46.937450
6719.726562	-46.333874
6720.703125	-45.711582
6721.679688	-46.767281
6722.656250	-46.274654
6723.632812	-47.949486
6724.609375	-47.624397
6725.585938	-46.551285
6726.562500	-48.392242
6727.539062	-48.512127
6728.515625	-44.916309
6729.492188	-46.671551
6730.468750	-46.120068
6731.445312	-45.453197
6732.421875	-45.730381
6733.398438	-47.305397
6734.375000	-45.484463
6735.351562	-45.235954
6736.328125	-44.554737
6737.304688	-45.776077
6738.281250	-46.583641
6739.257812	-45.835045
6740.234375	-46.961597
6741.210938	-44.998867
6742.187500	-44.619896
6743.164062	-47.136063
6744.140625	-47.226734
6745.117188	-46.118469
6746.093750	-46.306023
6747.070312	-46.374397
6748.046875	-46.923267
6749.023438	-45.591221
6750.000000	-45.278385
6750.976562	-43.762123
6751.953125	-45.922443
6752.929688	-46.142632
6753.906250	-46.559357
6754.882812	-47.900589
6755.859375	-47.672344
6756.835938	-45.840160
6757.812500	-45.487869
6758.789062	-45.099506
6759.765625	-46.332230
6760.742188	-45.060600
6761.718750	-45.592518
6762.695312	-46.556633
6763.671875	-46.807663
6764.648438	-45.604088
6765.625000	-45.529354
6766.601562	-46.103977
6767.578125	-45.741718
6768.554688	-45.845528
6769.531250	-47.564003
6770.507812	-47.402851
6771.484375	-47.358406
6772.460938	-48.922623
6773.437500	-46.642708
6774.414062	-45.912758
6775.390625	-47.265625
6776.367188	-47.790588
6777.343750	-45.257629
6778.320312	-44.620876
6779.296875	-44.954906
6780.273438	-45.627144
6781.250000	-45.841034
6782.226562	-44.148121
6783.203125	-45.109398
6784.179688	-45.881710
6785.156250	-46.482944
6786.132812	-46.199959
6787.109375	-47.040653
6788.085938	-45.670319
6789.062500	-46.387199
6790.039062	-44.379543
6791.015625	-47.025990
6791.992188	-44.289360
6792.968750	-45.373379
6793.945312	-46.293919
6794.921875	-48.024376
6795.898438	-44.553768
6796.875000	-47.484516
6797.851562	-46.451981
6798.828125	-44.874935
6799.804688	-46.677967
6800.781250	-46.598175
6801.757812	-44.157223
6802.734375	-45.317467
6803.710938	-44.619617
6804.687500	-45.456081
6805.664062	-46.263107
6806.640625	-45.473423
6807.617188	-44.857544
6808.593750	-44.160931
6809.570312	-47.710842
6810.546875	-46.211697
6811.523438	-44.428978
6812.500000	-46.502804
6813.476562	-45.894707
6814.453125	-45.259708
6815.429688	-46.461533
6816.406250	-46.561836
6817.382812	-45.675842
6818.359375	-47.142315
6819.335938	-45.440639
6820.312500	-46.696758
6821.289062	-46.800831
6822.265625	-46.107906
6823.242188	-48.030926
6824.218750	-45.899555
6825.195312	-45.612041
6826.171875	-44.748909
6827.148438	-46.802681
6828.125000	-48.836254
6829.101562	-46.787357
6830.078125	-47.071278
6831.054688	-46.756577
6832.031250	-46.173912
6833.007812	-47.846954
6833.984375	-47.792374
6834.960938	-45.351723
6835.937500	-45.375744
6836.914062	-45.432373
6837.890625	-48.887058
6838.867188	-45.598816
6839.843750	-46.075668
6840.820312	-47.247967
6841.796875	-47.841076
6842.773438	-47.112396
6843.750000	-44.725422
6844.726562	-46.025333
6845.703125	-46.166054
6846.679688	-45.069370
6847.656250	-45.080620
6848.632812	-45.544628
6849.609375	-46.643284
6850.585938	-46.025799
6851.562500	-44.790607
6852.539062	-46.478859
6853.515625	-45.448185
6854.492188	-46.234901
6855.468750	-45.984264
6856.445312	-45.774216
6857.421875	-46.702984
6858.398438	-45.762871
6859.375000	-46.419861
6860.351562	-47.065632
6861.328125	-45.907623
6862.304688	-47.652042
6863.281250	-47.908581
6864.257812	-46.509544
6865.234375	-45.745010
6866.210938	-43.960625
6867.187500	-45.418327
6868.164062	-47.330215
6869.140625	-47.504906
6870.117188	-45.334400
6871.093750	-44.632111
6872.070312	-44.262276
6873.046875	-44.709671
6874.023438	-45.598515
6875.000000	-45.597569
6875.976562	-44.174755
6876.953125	-46.220177
6877.929688	-47.359638
6878.906250	-45.485222
6879.882812	-45.048641
6880.859375	-44.449528
6881.835938	-45.315762
6882.812500	-46.532249
6883.789062	-46.857845
6884.765625	-46.119705
6885.742188	-45.340988
6886.718750	-44.902866
6887.695312	-44.918072
6888.671875	-47.138844
6889.648438	-46.297318
6890.625000	-44.311584
6891.601562	-42.449963
6892.578125	-42.884319
6893.554688	-41.051807
6894.531250	-41.888168
6895.507812	-43.735737
6896.484375	-45.013966
6897.460938	-41.860687
6898.437500	-44.911335
6899.414062	-45.308311
6900.390625	-44.180065
6901.367188	-44.014797
6902.343750	-44.129894
6903.320312	-44.773090
6904.296875	-44.511341
6905.273438	-44.284832
6906.250000	-42.803188
6907.226562	-44.813446
6908.203125	-44.129128
6909.179688	-42.184040
6910.156250	-42.697018
6911.132812	-41.511406
6912.109375	-43.300770
6913.085938	-44.948418
6914.062500	-43.454758
6915.039062	-43.881393
6916.015625	-43.198975
6916.992188	-44.303490
6917.968750	-44.237553
6918.945312	-47.702713
6919.921875	-45.220383
6920.898438	-44.297878
6921.875000	-43.101414
6922.851562	-44.554752
6923.828125	-43.512081
6924.804688	-44.495060
6925.781250	-44.044304
6926.757812	-44.329868
6927.734375	-43.664864
6928.710938	-44.283649
6929.687500	-44.837727
6930.664062	-43.428112
6931.640625	-41.549713
6932.617188	-43.550678
6933.593750	-45.808205
6934.570312	-45.282692
6935.546875	-45.085640
6936.523438	-44.491692
6937.500000	-45.370647
6938.476562	-46.460438
6939.453125	-45.358219
6940.429688	-45.097050
6941.406250	-45.041622
6942.382812	-46.348236
6943.359375	-45.994244
6944.335938	-46.439060
6945.312500	-46.931965
6946.289062	-44.622913
6947.265625	-46.083229
6948.242188	-44.746670
6949.218750	-43.577785
6950.195312	-46.363266
6951.171875	-45.636044
6952.148438	-45.770744
6953.125000	-43.485424
6954.101562	-42.923622
6955.078125	-44.409550
6956.054688	-47.194672
6957.031250	-46.403763
6958.007812	-46.552269
6958.984375	-46.931969
6959.960938	-44.607136
6960.937500	-45.492546
6961.914062	-45.885464
6962.890625	-44.933479
6963.867188	-45.979465
6964.843750	-46.020897
6965.820312	-46.667786
6966.796875	-46.398453
6967.773438	-47.460491
6968.750000	-47.141960
6969.726562	-45.086292
6970.703125	-46.000893
6971.679688	-46.975258
6972.656250	-44.877235
6973.632812	-45.874470
6974.609375	-46.039135
6975.585938	-43.413879
6976.562500	-45.648418
6977.539062	-46.722080
6978.515625	-47.094852
6979.492188	-46.529526
6980.468750	-45.732319
6981.445312	-47.379330
6982.421875	-45.383644
6983.398438	-46.876518
6984.375000	-46.413979
6985.351562	-44.774323
6986.328125	-44.623264
6987.304688	-46.206409
6988.281250	-46.685669
6989.257812	-47.243664
6990.234375	-44.600658
6991.210938	-45.122017
6992.187500	-45.720192
6993.164062	-45.007576
6994.140625	-45.316540
6995.117188	-45.974506
6996.093750	-46.062077
6997.070312	-46.170689
6998.046875	-47.251797
6999.023438	-45.138950
7000.000000	-45.604759
7000.976562	-47.168812
7001.953125	-47.139912
7002.929688	-46.339741
7003.906250	-45.008648
7004.882812	-45.323452
7005.859375	-46.820244
7006.835938	-44.605129
7007.812500	-45.836082
7008.789062	-44.349709
7009.765625	-44.452648
7010.742188	-45.281788
7011.718750	-45.306034
7012.695312	-44.675674
7013.671875	-46.114639
7014.648438	-46.550072
7015.625000	-45.620991
7016.601562	-45.088787
7017.578125	-46.607449
7018.554688	-46.104538
7019.531250	-43.998158
7020.507812	-47.047039
7021.484375	-45.776001
7022.460938	-46.485001
7023.437500	-42.554325
7024.414062	-43.666645
7025.390625	-43.368683
7026.367188	-44.803589
7027.343750	-45.906967
7028.320312	-48.350735
7029.296875	-46.008415
7030.273438	-47.129230
7031.250000	-45.009705
7032.226562	-46.509762
7033.203125	-46.301731
7034.179688	-46.138615
7035.156250	-47.274292
7036.132812	-47.009663
7037.109375	-46.920261
7038.085938	-47.148460
7039.062500	-45.780743
7040.039062	-46.675514
7041.015625	-45.319782
7041.992188	-45.925850
7042.968750	-47.481560
7043.945312	-46.386578
7044.921875	-45.132565
7045.898438	-47.064510
7046.875000	-43.903072
7047.851562	-47.528618
7048.828125	-48.515793
7049.804688	-47.465351
7050.781250	-49.066872
7051.757812	-47.193459
7052.734375	-46.121395
7053.710938	-47.555752
7054.687500	-46.859417
7055.664062	-48.058350
7056.640625	-47.569847
7057.617188	-46.068577
7058.593750	-45.768143
7059.570312	-45.951878
7060.546875	-47.489185
7061.523438	-47.260841
7062.500000	-45.544262
7063.476562	-49.180737
7064.453125	-46.910957
7065.429688	-47.281662
7066.406250	-47.791573
7067.382812	-48.393150
7068.359375	-46.795292
7069.335938	-46.489792
7070.312500	-46.137524
7071.289062	-46.824089
7072.265625	-46.774647
7073.242188	-49.555397
7074.218750	-46.033989
7075.195312	-49.391907
7076.171875	-48.702477
7077.148438	-46.321400
7078.125000	-48.020737
7079.101562	-48.943153
7080.078125	-48.579533
7081.054688	-46.967705
7082.031250	-46.599911
7083.007812	-45.781570
7083.984375	-45.642143
7084.960938	-49.495117
7085.937500	-50.191505
7086.914062	-47.484821
7087.890625	-48.984600
7088.867188	-47.394493
7089.843750	-47.098808
7090.820312	-47.684635
7091.796875	-48.752190
7092.773438	-49.707787
7093.750000	-47.817841
7094.726562	-47.751133
7095.703125	-47.426212
7096.679688	-48.961246
7097.656250	-49.307678
7098.632812	-49.982746
7099.609375	-48.056175
7100.585938	-48.531197
7101.562500	-48.686050
7102.539062	-49.165829
7103.515625	-50.130116
7104.492188	-47.720966
7105.468750	-49.319954
7106.445312	-48.718327
7107.421875	-48.465137
7108.398438	-47.635292
7109.375000	-47.181606
7110.351562	-49.163784
7111.328125	-49.483521
7112.304688	-49.031170
7113.281250	-50.225174
7114.257812	-50.389587
7115.234375	-49.531017
7116.210938	-49.145565
7117.187500	-50.089882
7118.164062	-48.687748
7119.140625	-49.206074
7120.117188	-50.260811
7121.093750	-50.830872
7122.070312	-50.203537
7123.046875	-49.293915
7124.023438	-48.968060
7125.000000	-49.216385
7125.976562	-48.467575
7126.953125	-49.467098
7127.929688	-50.721169
7128.906250	-51.767300
7129.882812	-51.591316
7130.859375	-50.745087
7131.835938	-49.692829
7132.812500	-48.538685
7133.789062	-48.822601
7134.765625	-49.975426
7135.742188	-50.228451
7136.718750	-49.576984
7137.695312	-49.219791
7138.671875	-50.681629
7139.648438	-51.529148
7140.625000	-51.140789
7141.601562	-50.604752
7142.578125	-49.908989
7143.554688	-48.508770
7144.531250	-49.502048
7145.507812	-49.374676
7146.484375	-50.011532
7147.460938	-50.869137
7148.437500	-51.949814
7149.414062	-50.350780
7150.390625	-50.591763
7151.367188	-50.578365
7152.343750	-50.699646
7153.320312	-50.715660
7154.296875	-51.012253
7155.273438	-50.998707
7156.250000	-50.794273
7157.226562	-50.802998
7158.203125	-49.755711
7159.179688	-50.440594
7160.156250	-50.689610
7161.132812	-50.242165
7162.109375	-50.400429
7163.085938	-51.007126
7164.062500	-51.706245
7165.039062	-51.739197
7166.015625	-50.978451
7166.992188	-51.598885
7167.968750	-50.573929
7168.945312	-51.525421
7169.921875	-51.946800
7170.898438	-51.714600
7171.875000	-51.292824
7172.851562	-49.498638
7173.828125	-49.870628
7174.804688	-50.398369
7175.781250	-50.158279
7176.757812	-49.614811
7177.734375	-49.284523
7178.710938	-49.723774
7179.687500	-50.365387
7180.664062	-51.349445
7181.640625	-52.778290
7182.617188	-51.990875
7183.593750	-52.889793
7184.570312	-50.794308
7185.546875	-51.555088
7186.523438	-52.410706
7187.500000	-52.393589
7188.476562	-52.167706
7189.453125	-52.562420
7190.429688	-51.441017
7191.406250	-50.615864
7192.382812	-49.577507
7193.359375	-49.070225
7194.335938	-49.931786
7195.312500	-50.877430
7196.289062	-51.748756
7197.265625	-51.491180
7198.242188	-52.322166
7199.218750	-50.272938
7200.195312	-50.178238
7201.171875	-50.310879
7202.148438	-52.175495
7203.125000	-52.707737
7204.101562	-54.177818
7205.078125	-53.014782
7206.054688	-51.983868
7207.031250	-51.900391
7208.007812	-50.941208
7208.984375	-52.183109
7209.960938	-52.474911
7210.937500	-52.027657
7211.914062	-50.990143
7212.890625	-50.687580
7213.867188	-50.144993
7214.843750	-51.451736
7215.820312	-51.945671
7216.796875	-52.207653
7217.773438	-50.643066
7218.750000	-51.765892
7219.726562	-51.491291
7220.703125	-51.518112
7221.679688	-51.276806
7222.656250	-52.688385
7223.632812	-53.775562
7224.609375	-53.645550
7225.585938	-51.216175
7226.562500	-50.194820
7227.539062	-50.372597
7228.515625	-50.550987
7229.492188	-51.330090
7230.468750	-52.549950
7231.445312	-52.834423
7232.421875	-51.101650
7233.398438	-51.456764
7234.375000	-51.235783
7235.351562	-52.852112
7236.328125	-53.213650
7237.304688	-51.837700
7238.281250	-52.651752
7239.257812	-53.234901
7240.234375	-53.381191
7241.210938	-52.316368
7242.187500	-53.152058
7243.164062	-52.612724
7244.140625	-52.685726
7245.117188	-52.082130
7246.093750	-51.647118
7247.070312	-51.248745
7248.046875	-50.347923
7249.023438	-51.317024
7250.000000	-50.512402
7250.976562	-52.186028
7251.953125	-52.754410
7252.929688	-52.437714
7253.906250	-52.143581
7254.882812	-51.210732
7255.859375	-50.711613
7256.835938	-51.016220
7257.812500	-52.040890
7258.789062	-52.629585
7259.765625	-53.856319
7260.742188	-53.236565
7261.718750	-51.582973
7262.695312	-51.744057
7263.671875	-52.119320
7264.648438	-53.258980
7265.625000	-54.107883
7266.601562	-51.771252
7267.578125	-53.342304
7268.554688	-54.308002
7269.531250	-53.381214
7270.507812	-52.616150
7271.484375	-53.315262
7272.460938	-53.798828
7273.437500	-52.217773
7274.414062	-52.599361
7275.390625	-52.492554
7276.367188	-53.030624
7277.343750	-51.635433
7278.320312	-51.173882
7279.296875	-51.175110
7280.273438	-51.592827
7281.250000	-52.007118
7282.226562	-52.222691
7283.203125	-52.514336
7284.179688	-51.867710
7285.156250	-52.105160
7286.132812	-52.479954
7287.109375	-52.149933
7288.085938	-52.481102
7289.062500	-51.866592
7290.039062	-51.500027
7291.015625	-52.640644
7291.992188	-53.940880
7292.968750	-53.863220
7293.945312	-54.152317
7294.921875	-53.894249
7295.898438	-52.616409
7296.875000	-52.840572
7297.851562	-52.640842
7298.828125	-53.751175
7299.804688	-53.239632
7300.781250	-53.819920
7301.757812	-53.015835
7302.734375	-53.559238
7303.710938	-53.310452
7304.687500	-52.834293
7305.664062	-52.956200
7306.640625	-51.595207
7307.617188	-51.064960
7308.593750	-52.637180
7309.570312	-53.577591
7310.546875	-52.881332
7311.523438	-52.269150
7312.500000	-51.434696
7313.476562	-50.780930
7314.453125	-50.550743
7315.429688	-51.112389
7316.406250	-52.281513
7317.382812	-52.274094
7318.359375	-53.686825
7319.335938	-54.163559
7320.312500	-53.535027
7321.289062	-54.446342
7322.265625	-55.714954
7323.242188	-54.705986
7324.218750	-54.747311
7325.195312	-54.438984
7326.171875	-54.635227
7327.148438	-54.676083
7328.125000	-54.120033
7329.101562	-53.772690
7330.078125	-53.124100
7331.054688	-53.846832
7332.031250	-53.262039
7333.007812	-52.874439
7333.984375	-52.466194
7334.960938	-51.606838
7335.937500	-51.547832
7336.914062	-52.117931
7337.890625	-53.912518
7338.867188	-52.772038
7339.843750	-51.556026
7340.820312	-51.167725
7341.796875	-52.025642
7342.773438	-51.379818
7343.750000	-51.602577
7344.726562	-52.134075
7345.703125	-53.270924
7346.679688	-54.792770
7347.656250	-55.326641
7348.632812	-54.369461
7349.609375	-55.010262
7350.585938	-55.715637
7351.562500	-54.839615
7352.539062	-55.155796
7353.515625	-55.486210
7354.492188	-53.716263
7355.468750	-53.868206
7356.445312	-53.216385
7357.421875	-52.681793
7358.398438	-52.695190
7359.375000	-53.865662
7360.351562	-53.671410
7361.328125	-53.880856
7362.304688	-53.839302
7363.281250	-53.172970
7364.257812	-52.908501
7365.234375	-52.802082
7366.210938	-52.778690
7367.187500	-53.172192
7368.164062	-51.704441
7369.140625	-51.744793
7370.117188	-52.263290
7371.093750	-52.251049
7372.070312	-52.520493
7373.046875	-51.457878
7374.023438	-52.705036
7375.000000	-54.582031
7375.976562	-54.621986
7376.953125	-53.247120
7377.929688	-53.647732
7378.906250	-53.829338
7379.882812	-53.510681
7380.859375	-56.683807
7381.835938	-55.912823
7382.812500	-55.003990
7383.789062	-54.719574
7384.765625	-54.266609
7385.742188	-53.378811
7386.718750	-53.161907
7387.695312	-54.045704
7388.671875	-53.764992
7389.648438	-53.806580
7390.625000	-53.847805
7391.601562	-54.420120
7392.578125	-54.114487
7393.554688	-53.735424
7394.531250	-54.004974
7395.507812	-53.042072
7396.484375	-53.444572
7397.460938	-52.563343
7398.437500	-52.061352
7399.414062	-52.144768
7400.390625	-53.390659
7401.367188	-52.680817
7402.343750	-52.712631
7403.320312	-53.497646
7404.296875	-55.384411
7405.273438	-55.208187
7406.250000	-54.549404
7407.226562	-53.805016
7408.203125	-56.402641
7409.179688	-56.180214
7410.156250	-55.046989
7411.132812	-56.157814
7412.109375	-53.835209
7413.085938	-54.343361
7414.062500	-54.157421
7415.039062	-52.728001
7416.015625	-54.268822
7416.992188	-55.209309
7417.968750	-55.231770
7418.945312	-54.553646
7419.921875	-54.014412
7420.898438	-53.941296
7421.875000	-53.779518
7422.851562	-53.802208
7423.828125	-53.315151
7424.804688	-55.138100
7425.781250	-52.981804
7426.757812	-53.898685
7427.734375	-53.382992
7428.710938	-55.107105
7429.687500	-54.237621
7430.664062	-53.805107
7431.640625	-54.217239
7432.617188	-53.504761
7433.593750	-55.486328
7434.570312	-55.064400
7435.546875	-53.530678
7436.523438	-54.248344
7437.500000	-54.440662
7438.476562	-54.649868
7439.453125	-54.346207
7440.429688	-53.384922
7441.406250	-54.496651
7442.382812	-54.188068
7443.359375	-55.751511
7444.335938	-55.690716
7445.312500	-55.747784
7446.289062	-55.443478
7447.265625	-55.602264
7448.242188	-54.776810
7449.218750	-54.681885
7450.195312	-54.737339
7451.171875	-55.050583
7452.148438	-53.962975
7453.125000	-54.720425
7454.101562	-53.642731
7455.078125	-54.380867
7456.054688	-54.031364
7457.031250	-53.524769
7458.007812	-54.352818
7458.984375	-53.365597
7459.960938	-54.481380
7460.937500	-55.322243
7461.914062	-55.347755
7462.890625	-53.316502
7463.867188	-53.590576
7464.843750	-53.758266
7465.820312	-54.478153
7466.796875	-54.248592
7467.773438	-55.342968
7468.750000	-55.311184
7469.726562	-55.461075
7470.703125	-55.093292
7471.679688	-55.468838
7472.656250	-55.675999
7473.632812	-55.643024
7474.609375	-56.605930
7475.585938	-56.159298
7476.562500	-54.741112
7477.539062	-56.112354
7478.515625	-55.075897
7479.492188	-53.950237
7480.468750	-53.875484
7481.445312	-54.395004
7482.421875	-55.735870
7483.398438	-55.816891
7484.375000	-53.183361
7485.351562	-55.055367
7486.328125	-55.385582
7487.304688	-55.459095
7488.281250	-55.592148
7489.257812	-55.235928
7490.234375	-53.862022
7491.210938	-55.626114
7492.187500	-53.537716
7493.164062	-55.027985
7494.140625	-55.117184
7495.117188	-55.021233
7496.093750	-55.665245
7497.070312	-55.736408
7498.046875	-55.551304
7499.023438	-55.369366
7500.000000	-55.374939
7500.976562	-55.016273
7501.953125	-54.240456
7502.929688	-52.519703
7503.906250	-55.802193
7504.882812	-56.161228
7505.859375	-54.726089
7506.835938	-54.985279
7507.812500	-53.179352
7508.789062	-55.516903
7509.765625	-56.503510
7510.742188	-57.173290
7511.718750	-56.220619
7512.695312	-56.985943
7513.671875	-55.100124
7514.648438	-56.349152
7515.625000	-55.409012
7516.601562	-55.657097
7517.578125	-54.670029
7518.554688	-54.686680
7519.531250	-55.591938
7520.507812	-56.618156
7521.484375	-56.503757
7522.460938	-55.672562
7523.437500	-54.361713
7524.414062	-53.414200
7525.390625	-55.957581
7526.367188	-55.854076
7527.343750	-55.907063
7528.320312	-55.784599
7529.296875	-55.170773
7530.273438	-55.005955
7531.250000	-54.986824
7532.226562	-55.441998
7533.203125	-56.635380
7534.179688	-56.985512
7535.156250	-55.151241
7536.132812	-54.815670
7537.109375	-56.815784
7538.085938	-57.980488
7539.062500	-57.341415
7540.039062	-56.662342
7541.015625	-55.487465
7541.992188	-55.008163
7542.968750	-58.350063
7543.945312	-58.414505
7544.921875	-57.767406
7545.898438	-55.434952
7546.875000	-57.174454
7547.851562	-56.425991
7548.828125	-55.576103
7549.804688	-55.392982
7550.781250	-56.563469
7551.757812	-55.429382
7552.734375	-55.734406
7553.710938	-57.234146
7554.687500	-58.305016
7555.664062	-56.428421
7556.640625	-54.497070
7557.617188	-55.211521
7558.593750	-57.543449
7559.570312	-55.033295
7560.546875	-57.254807
7561.523438	-56.511978
7562.500000	-56.072075
7563.476562	-57.695808
7564.453125	-58.927467
7565.429688	-58.537579
7566.406250	-58.733402
7567.382812	-58.758877
7568.359375	-59.749439
7569.335938	-57.512112
7570.312500	-56.777435
7571.289062	-57.413269
7572.265625	-57.850677
7573.242188	-58.002876
7574.218750	-57.611145
7575.195312	-56.228737
7576.171875	-57.904259
7577.148438	-58.956600
7578.125000	-57.700867
7579.101562	-57.296333
7580.078125	-58.701965
7581.054688	-56.063095
7582.031250	-57.649929
7583.007812	-57.702438
7583.984375	-59.085762
7584.960938	-59.336170
7585.937500	-58.217606
7586.914062	-57.850739
7587.890625	-57.551422
7588.867188	-59.588470
7589.843750	-61.220268
7590.820312	-59.525726
7591.796875	-57.234127
7592.773438	-57.337830
7593.750000	-57.310852
7594.726562	-57.129433
7595.703125	-59.460999
7596.679688	-59.467472
7597.656250	-59.389656
7598.632812	-58.155903
7599.609375	-59.924103
7600.585938	-59.087715
7601.562500	-58.184433
7602.539062	-56.916416
7603.515625	-57.606274
7604.492188	-57.497864
7605.468750	-59.198364
7606.445312	-58.047672
7607.421875	-58.089485
7608.398438	-59.153736
7609.375000	-60.696968
7610.351562	-60.258171
7611.328125	-60.104088
7612.304688	-58.765835
7613.281250	-58.269577
7614.257812	-57.583927
7615.234375	-57.939987
7616.210938	-58.336746
7617.187500	-61.304443
7618.164062	-61.228531
7619.140625	-60.765728
7620.117188	-59.663609
7621.093750	-58.995293
7622.070312	-59.903797
7623.046875	-59.024590
7624.023438	-58.882565
7625.000000	-57.935894
7625.976562	-58.647652
7626.953125	-59.320564
7627.929688	-60.511242
7628.906250	-57.503365
7629.882812	-57.331577
7630.859375	-60.878113
7631.835938	-58.681400
7632.812500	-60.190975
7633.789062	-59.622189
7634.765625	-61.086933
7635.742188	-60.026508
7636.718750	-58.871132
7637.695312	-60.173698
7638.671875	-60.584206
7639.648438	-60.707630
7640.625000	-60.468784
7641.601562	-60.639896
7642.578125	-62.804825
7643.554688	-61.612686
7644.531250	-59.409412
7645.507812	-59.417934
7646.484375	-60.422520
7647.460938	-60.114635
7648.437500	-62.115776
7649.414062	-60.712700
7650.390625	-59.645824
7651.367188	-62.588684
7652.343750	-60.640797
7653.320312	-58.258953
7654.296875	-58.272629
7655.273438	-60.674831
7656.250000	-60.028736
7657.226562	-62.320362
7658.203125	-61.347229
7659.179688	-60.543594
7660.156250	-60.924961
7661.132812	-63.490883
7662.109375	-63.690327
7663.085938	-62.897667
7664.062500	-62.548626
7665.039062	-62.354877
7666.015625	-62.037094
7666.992188	-61.994289
7667.968750	-63.324993
7668.945312	-60.535545
7669.921875	-62.675331
7670.898438	-60.772804
7671.875000	-62.746368
7672.851562	-63.458328
7673.828125	-62.557903
7674.804688	-61.196152
7675.781250	-60.042793
7676.757812	-60.555889
7677.734375	-61.472649
7678.710938	-61.247574
7679.687500	-61.627285
7680.664062	-61.492924
7681.640625	-61.032612
7682.617188	-62.430981
7683.593750	-61.955341
7684.570312	-61.549801
7685.546875	-63.328453
7686.523438	-62.238136
7687.500000	-62.835625
7688.476562	-63.851196
7689.453125	-65.181854
7690.429688	-64.941467
7691.406250	-65.482346
7692.382812	-65.028824
7693.359375	-62.764515
7694.335938	-64.283142
7695.312500	-64.322212
7696.289062	-64.952171
7697.265625	-63.050957
7698.242188	-65.502953
7699.218750	-63.641171
7700.195312	-63.938679
7701.171875	-65.146027
7702.148438	-64.761833
7703.125000	-63.487823
7704.101562	-64.765450
7705.078125	-63.501091
7706.054688	-63.414520
7707.031250	-63.051765
7708.007812	-64.978165
7708.984375	-64.383934
7709.960938	-65.618149
7710.937500	-66.709045
7711.914062	-65.703094
7712.890625	-65.839432
7713.867188	-66.612823
7714.843750	-64.078148
7715.820312	-64.718277
7716.796875	-65.718307
7717.773438	-67.991425
7718.750000	-65.761612
7719.726562	-64.931709
7720.703125	-64.803749
7721.679688	-65.513939
7722.656250	-65.283081
7723.632812	-65.209335
7724.609375	-64.740761
7725.585938	-66.067642
7726.562500	-64.695335
7727.539062	-64.604866
7728.515625	-66.679588
7729.492188	-67.756561
7730.468750	-65.939812
7731.445312	-66.243141
7732.421875	-65.887085
7733.398438	-65.681816
7734.375000	-66.177132
7735.351562	-64.911308
7736.328125	-64.673355
7737.304688	-65.340141
7738.281250	-66.084236
7739.257812	-65.674316
7740.234375	-67.040573
7741.210938	-67.028008
7742.187500	-67.100044
7743.164062	-64.584175
7744.140625	-63.180222
7745.117188	-63.853645
7746.093750	-67.205948
7747.070312	-66.529251
7748.046875	-67.459312
7749.023438	-66.185867
7750.000000	-67.559944
7750.976562	-66.366684
7751.953125	-65.803810
7752.929688	-66.292847
7753.906250	-66.965523
7754.882812	-66.478104
7755.859375	-65.924469
7756.835938	-67.782127
7757.812500	-67.569443
7758.789062	-66.453369
7759.765625	-67.196602
7760.742188	-66.637497
7761.718750	-66.867844
7762.695312	-66.522369
7763.671875	-67.284622
7764.648438	-67.848221
7765.625000	-68.791183
7766.601562	-66.572311
7767.578125	-67.219994
7768.554688	-66.685921
7769.531250	-65.715714
7770.507812	-67.288155
7771.484375	-67.123451
7772.460938	-66.913567
7773.437500	-68.117722
7774.414062	-67.133781
7775.390625	-69.171188
7776.367188	-66.335930
7777.343750	-65.830872
7778.320312	-67.913826
7779.296875	-67.795876
7780.273438	-66.827942
7781.250000	-67.587090
7782.226562	-68.363251
7783.203125	-69.137352
7784.179688	-67.061485
7785.156250	-67.500397
7786.132812	-66.768883
7787.109375	-67.483032
7788.085938	-67.261238
7789.062500	-66.116753
7790.039062	-67.033165
7791.015625	-67.134666
7791.992188	-67.215828
7792.968750	-69.105103
7793.945312	-68.963974
7794.921875	-67.362076
7795.898438	-69.622665
7796.875000	-69.390587
7797.851562	-70.114105
7798.828125	-69.300446
7799.804688	-69.562889
7800.781250	-68.685570
7801.757812	-66.779396
7802.734375	-67.556419
7803.710938	-66.873634
7804.687500	-68.099998
7805.664062	-68.758011
7806.640625	-69.632256
7807.617188	-68.720528
7808.593750	-68.489082
7809.570312	-67.884956
7810.546875	-68.201424
7811.523438	-68.464417
7812.500000	-68.569458
7813.476562	-66.543228
7814.453125	-68.872231
7815.429688	-69.375122
7816.406250	-70.222870
7817.382812	-71.401283
7818.359375	-70.546730
7819.335938	-69.429260
7820.312500	-68.608589
7821.289062	-70.077850
7822.265625	-70.130638
7823.242188	-69.232765
7824.218750	-69.524765
7825.195312	-67.345291
7826.171875	-68.976288
7827.148438	-69.528175
7828.125000	-69.602852
7829.101562	-70.036118
7830.078125	-68.172874
7831.054688	-70.714592
7832.031250	-69.784103
7833.007812	-68.130798
7833.984375	-68.297066
7834.960938	-70.748581
7835.937500	-69.527946
7836.914062	-69.752251
7837.890625	-69.862862
7838.867188	-68.350540
7839.843750	-69.085136
7840.820312	-70.849541
7841.796875	-70.439560
7842.773438	-71.196609
7843.750000	-69.134003
7844.726562	-68.376785
7845.703125	-67.751129
7846.679688	-68.129593
7847.656250	-69.252312
7848.632812	-69.920967
7849.609375	-68.391739
7850.585938	-69.288910
7851.562500	-69.891296
7852.539062	-69.898109
7853.515625	-70.012085
7854.492188	-69.044067
7855.468750	-70.748085
7856.445312	-68.382713
7857.421875	-69.441658
7858.398438	-70.358871
7859.375000	-68.909302
7860.351562	-69.717140
7861.328125	-69.397522
7862.304688	-69.386642
7863.281250	-69.469627
7864.257812	-70.072250
7865.234375	-70.342201
7866.210938	-68.875618
7867.187500	-70.030983
7868.164062	-69.706879
7869.140625	-69.139938
7870.117188	-69.878960
7871.093750	-68.751793
7872.070312	-67.872292
7873.046875	-68.417595
7874.023438	-69.856857
7875.000000	-69.322601
7875.976562	-69.634773
7876.953125	-69.974922
7877.929688	-69.972267
7878.906250	-69.662033
7879.882812	-68.836479
7880.859375	-69.485367
7881.835938	-69.153931
7882.812500	-69.317497
7883.789062	-68.863869
7884.765625	-69.669807
7885.742188	-70.363716
7886.718750	-68.306953
7887.695312	-71.003464
7888.671875	-70.483795
7889.648438	-71.180565
7890.625000	-70.655670
7891.601562	-69.671394
7892.578125	-70.245338
7893.554688	-70.469963
7894.531250	-69.916862
7895.507812	-67.905022
7896.484375	-67.273125
7897.460938	-69.679504
7898.437500	-69.551537
7899.414062	-69.021538
7900.390625	-70.065979
7901.367188	-70.553963
7902.343750	-67.948685
7903.320312	-69.552826
7904.296875	-68.447121
7905.273438	-71.676414
7906.250000	-69.744812
7907.226562	-69.851715
7908.203125	-71.671585
7909.179688	-70.170502
7910.156250	-71.187721
7911.132812	-72.207436
7912.109375	-70.475922
7913.085938	-68.474983
7914.062500	-70.965805
7915.039062	-69.707222
7916.015625	-68.775841
7916.992188	-68.921021
7917.968750	-72.404366
7918.945312	-70.537048
7919.921875	-69.652298
7920.898438	-70.140625
7921.875000	-71.377785
7922.851562	-69.825897
7923.828125	-70.570282
7924.804688	-71.227455
7925.781250	-68.755379
7926.757812	-69.916397
7927.734375	-70.862518
7928.710938	-68.247063
7929.687500	-70.054222
7930.664062	-69.501389
7931.640625	-69.487198
7932.617188	-70.366394
7933.593750	-72.498535
7934.570312	-71.206108
7935.546875	-70.013008
7936.523438	-71.637665
7937.500000	-70.668892
7938.476562	-70.834175
7939.453125	-70.147514
7940.429688	-70.829620
7941.406250	-71.174072
7942.382812	-70.967552
7943.359375	-70.945831
7944.335938	-70.418724
7945.312500	-69.351013
7946.289062	-70.221367
7947.265625	-71.783264
7948.242188	-70.649559
7949.218750	-70.497070
7950.195312	-71.381920
7951.171875	-70.472946
7952.148438	-68.816139
7953.125000	-70.074127
7954.101562	-70.562836
7955.078125	-70.500160
7956.054688	-70.151733
7957.031250	-71.494308
7958.007812	-70.731636
7958.984375	-71.348587
7959.960938	-70.138390
7960.937500	-71.093201
7961.914062	-71.506943
7962.890625	-71.888756
7963.867188	-68.976601
7964.843750	-69.564560
7965.820312	-70.326820
7966.796875	-70.932281
7967.773438	-68.539589
7968.750000	-71.330658
7969.726562	-69.689758
7970.703125	-71.385506
7971.679688	-71.032257
7972.656250	-69.740532
7973.632812	-69.691269
7974.609375	-69.981102
7975.585938	-69.372787
7976.562500	-68.037033
7977.539062	-68.507706
7978.515625	-70.847969
7979.492188	-72.390648
7980.468750	-70.108727
7981.445312	-70.108269
7982.421875	-70.045540
7983.398438	-71.526550
7984.375000	-72.593834
7985.351562	-71.908653
7986.328125	-70.896896
7987.304688	-72.076088
7988.281250	-71.196556
7989.257812	-70.985802
7990.234375	-71.883652
7991.210938	-70.584877
7992.187500	-72.712570
7993.164062	-72.541954
7994.140625	-73.186897
7995.117188	-71.542694
7996.093750	-68.908524
7997.070312	-72.039192
7998.046875	-71.677963
7999.023438	-68.589516
