Frequency (Hz)	Level (dB)
0.976562	-47.347942
1.953125	-46.458599
2.929688	-47.607525
3.906250	-46.982380
4.882812	-47.119221
5.859375	-46.679367
6.835938	-46.799526
7.812500	-46.500240
8.789062	-45.963974
9.765625	-46.819038
10.742188	-47.531544
11.718750	-46.836948
12.695312	-47.393497
13.671875	-48.240555
14.648438	-47.232616
15.625000	-47.625977
16.601562	-46.763485
17.578125	-47.190567
18.554688	-46.757664
19.531250	-46.460022
20.507812	-46.877090
21.484375	-47.204002
22.460938	-46.941132
23.437500	-46.091965
24.414062	-45.951458
25.390625	-47.407356
26.367188	-47.695923
27.343750	-46.166840
28.320312	-46.657661
29.296875	-46.699139
30.273438	-47.163082
31.250000	-46.876858
32.226562	-46.866295
33.203125	-46.508286
34.179688	-46.972477
35.156250	-47.067032
36.132812	-47.523869
37.109375	-47.159977
38.085938	-47.568867
39.062500	-47.168797
40.039062	-47.026493
41.015625	-46.944427
41.992188	-47.139687
42.968750	-46.937893
43.945312	-46.198460
44.921875	-47.468132
45.898438	-47.415485
46.875000	-47.743671
47.851562	-46.960392
48.828125	-47.114685
49.804688	-46.791004
50.781250	-47.110378
51.757812	-46.562046
52.734375	-46.213257
53.710938	-46.910400
54.687500	-46.896534
55.664062	-47.194469
56.640625	-47.027962
57.617188	-47.460548
58.593750	-47.197010
59.570312	-46.580410
60.546875	-46.442894
61.523438	-46.290348
62.500000	-47.248684
63.476562	-46.771145
64.453125	-47.162930
65.429688	-47.125385
66.406250	-46.736958
67.382812	-46.852116
68.359375	-46.544949
69.335938	-47.342278
70.312500	-47.140636
71.289062	-46.769329
72.265625	-47.994507
73.242188	-47.060032
74.218750	-47.219505
75.195312	-46.961288
76.171875	-47.288509
77.148438	-46.882938
78.125000	-47.172047
79.101562	-47.087162
80.078125	-46.238235
81.054688	-46.476143
82.031250	-47.108643
83.007812	-47.380486
83.984375	-47.220051
84.960938	-46.670887
85.937500	-46.472092
86.914062	-46.144596
87.890625	-46.800636
88.867188	-47.152138
89.843750	-46.900314
90.820312	-46.421524
91.796875	-47.017349
92.773438	-46.607895
93.750000	-46.109177
94.726562	-46.720798
95.703125	-47.030617
96.679688	-46.866177
97.656250	-47.377819
98.632812	-46.957695
99.609375	-46.277130
100.585938	-47.540901
101.562500	-46.913479
102.539062	-47.310078
103.515625	-46.800503
104.492188	-46.678841
105.468750	-46.705406
106.445312	-47.318775
107.421875	-47.114651
108.398438	-46.539581
109.375000	-46.218826
110.351562	-47.189045
111.328125	-46.455231
112.304688	-46.731770
113.281250	-46.764790
114.257812	-46.427460
115.234375	-46.687771
116.210938	-47.294666
117.187500	-47.003593
118.164062	-46.905830
119.140625	-47.607670
120.117188	-46.975006
121.093750	-46.925442
122.070312	-47.373405
123.046875	-46.790432
124.023438	-46.773705
125.000000	-46.724297
125.976562	-47.240231
126.953125	-47.526470
127.929688	-47.743866
128.906250	-46.371044
129.882812	-46.765163
130.859375	-46.308235
131.835938	-47.124985
132.812500	-47.555401
133.789062	-46.705471
134.765625	-47.606476
135.742188	-47.440525
136.718750	-46.448853
137.695312	-46.354710
138.671875	-46.592258
139.648438	-46.765049
140.625000	-47.177277
141.601562	-46.600185
142.578125	-46.477371
143.554688	-46.690716
144.531250	-46.584423
145.507812	-46.982956
146.484375	-47.032909
147.460938	-47.166897
148.437500	-46.609741
149.414062	-47.219257
150.390625	-46.427361
151.367188	-46.297363
152.343750	-47.303841
153.320312	-46.431396
154.296875	-46.988625
155.273438	-45.923748
156.250000	-46.527115
157.226562	-46.972599
158.203125	-46.719578
159.179688	-47.400040
160.156250	-47.656433
161.132812	-46.505604
162.109375	-46.856297
163.085938	-47.274879
164.062500	-46.637661
165.039062	-46.714104
166.015625	-46.415134
166.992188	-46.829601
167.968750	-46.949436
168.945312	-48.082542
169.921875	-47.331165
170.898438	-47.483925
171.875000	-47.155712
172.851562	-46.998653
173.828125	-47.634998
174.804688	-47.606979
175.781250	-46.574081
176.757812	-47.051723
177.734375	-46.634911
178.710938	-46.499260
179.687500	-46.991043
180.664062	-46.357281
181.640625	-46.720844
182.617188	-46.787971
183.593750	-47.065701
184.570312	-46.895962
185.546875	-47.615856
186.523438	-47.448036
187.500000	-46.837132
188.476562	-47.285419
189.453125	-47.101109
190.429688	-47.335514
191.406250	-46.906628
192.382812	-46.850853
193.359375	-46.806496
194.335938	-47.130226
195.312500	-47.129467
196.289062	-47.163189
197.265625	-47.418724
198.242188	-47.293633
199.218750	-47.214020
200.195312	-47.129726
201.171875	-47.326893
202.148438	-47.582943
203.125000	-47.162941
204.101562	-46.528191
205.078125	-46.749657
206.054688	-46.901440
207.031250	-46.843838
208.007812	-46.700153
208.984375	-46.785343
209.960938	-46.675159
210.937500	-47.157089
211.914062	-46.628212
212.890625	-47.187515
213.867188	-46.534691
214.843750	-46.419788
215.820312	-46.589539
216.796875	-47.222218
217.773438	-46.410091
218.750000	-46.701473
219.726562	-47.293831
220.703125	-47.059837
221.679688	-46.733772
222.656250	-47.341511
223.632812	-47.255493
224.609375	-47.322529
225.585938	-46.735699
226.562500	-46.418156
227.539062	-47.321552
228.515625	-47.459213
229.492188	-46.774426
230.468750	-46.731121
231.445312	-47.678757
232.421875	-47.418175
233.398438	-46.798016
234.375000	-46.825008
235.351562	-47.047642
236.328125	-47.001480
237.304688	-46.099003
238.281250	-46.064964
239.257812	-46.932148
240.234375	-46.162907
241.210938	-46.787220
242.187500	-47.219368
243.164062	-47.046047
244.140625	-46.952202
245.117188	-46.781712
246.093750	-46.748913
247.070312	-46.410069
248.046875	-46.817802
249.023438	-47.624744
250.000000	-47.180458
250.976562	-46.328171
251.953125	-47.205700
252.929688	-47.096535
253.906250	-47.020569
254.882812	-46.743561
255.859375	-46.735840
256.835938	-46.860123
257.812500	-47.063694
258.789062	-47.148403
259.765625	-47.117832
260.742188	-47.103172
261.718750	-47.422455
262.695312	-46.608463
263.671875	-47.116604
264.648438	-45.838795
265.625000	-46.452034
266.601562	-46.719524
267.578125	-47.561962
268.554688	-46.751591
269.531250	-47.514240
270.507812	-47.570934
271.484375	-46.434349
272.460938	-46.918194
273.437500	-46.224560
274.414062	-47.003403
275.390625	-47.130798
276.367188	-46.996254
277.343750	-46.609142
278.320312	-47.113579
279.296875	-46.561638
280.273438	-47.205429
281.250000	-47.306278
282.226562	-47.329529
283.203125	-47.300880
284.179688	-46.905113
285.156250	-47.351929
286.132812	-47.034081
287.109375	-47.356636
288.085938	-46.857048
289.062500	-47.787018
290.039062	-47.568188
291.015625	-47.108654
291.992188	-46.957367
292.968750	-47.227169
293.945312	-47.113880
294.921875	-46.822277
295.898438	-47.371689
296.875000	-46.830360
297.851562	-47.239334
298.828125	-46.786789
299.804688	-47.150131
300.781250	-46.062721
301.757812	-46.944424
302.734375	-46.455051
303.710938	-46.114548
304.687500	-47.475052
305.664062	-47.119877
306.640625	-46.679245
307.617188	-46.740772
308.593750	-47.005707
309.570312	-47.807270
310.546875	-47.574520
311.523438	-46.131451
312.500000	-46.389545
313.476562	-47.164978
314.453125	-47.601490
315.429688	-46.901951
316.406250	-46.841419
317.382812	-47.431297
318.359375	-46.570385
319.335938	-46.766800
320.312500	-46.209770
321.289062	-46.178116
322.265625	-46.579563
323.242188	-46.140709
324.218750	-46.451714
325.195312	-47.003769
326.171875	-47.449665
327.148438	-46.408836
328.125000	-46.844570
329.101562	-46.540157
330.078125	-47.637051
331.054688	-46.830860
332.031250	-47.293221
333.007812	-46.481583
333.984375	-47.152557
334.960938	-46.606174
335.937500	-47.216579
336.914062	-47.055050
337.890625	-46.276833
338.867188	-46.902161
339.843750	-46.723274
340.820312	-47.158497
341.796875	-46.668522
342.773438	-46.562805
343.750000	-47.041573
344.726562	-45.999249
345.703125	-45.936333
346.679688	-47.296730
347.656250	-47.443493
348.632812	-47.170715
349.609375	-47.418198
350.585938	-46.426044
351.562500	-47.318974
352.539062	-47.403202
353.515625	-47.063221
354.492188	-47.409275
355.468750	-46.636616
356.445312	-47.106243
357.421875	-46.977467
358.398438	-46.140316
359.375000	-46.568485
360.351562	-46.834263
361.328125	-46.933300
362.304688	-47.100677
363.281250	-47.378311
364.257812	-47.387463
365.234375	-47.557148
366.210938	-47.258099
367.187500	-46.468044
368.164062	-47.040932
369.140625	-46.904819
370.117188	-46.996559
371.093750	-46.242271
372.070312	-46.720314
373.046875	-46.722366
374.023438	-46.083214
375.000000	-47.149345
375.976562	-47.248623
376.953125	-47.303307
377.929688	-46.926010
378.906250	-46.330318
379.882812	-47.228920
380.859375	-48.264481
381.835938	-47.323261
382.812500	-46.722870
383.789062	-46.736336
384.765625	-47.230934
385.742188	-47.074501
386.718750	-46.973438
387.695312	-46.693504
388.671875	-46.502342
389.648438	-46.285847
390.625000	-47.216942
391.601562	-47.274876
392.578125	-46.570396
393.554688	-47.319191
394.531250	-47.141331
395.507812	-47.041275
396.484375	-46.451405
397.460938	-46.526695
398.437500	-46.809441
399.414062	-46.392334
400.390625	-47.007122
401.367188	-47.506645
402.343750	-46.562214
403.320312	-46.810059
404.296875	-47.727329
405.273438	-46.792267
406.250000	-46.946835
407.226562	-46.965996
408.203125	-46.450882
409.179688	-47.457451
410.156250	-46.552345
411.132812	-47.602268
412.109375	-47.266163
413.085938	-46.933140
414.062500	-46.863983
415.039062	-47.318165
416.015625	-46.260639
416.992188	-46.663448
417.968750	-47.561665
418.945312	-46.508934
419.921875	-46.927574
420.898438	-46.524326
421.875000	-47.008373
422.851562	-46.591805
423.828125	-46.590126
424.804688	-46.547794
425.781250	-47.093483
426.757812	-46.778652
427.734375	-46.900742
428.710938	-47.921333
429.687500	-46.967236
430.664062	-47.143208
431.640625	-47.103313
432.617188	-46.871925
433.593750	-46.853062
434.570312	-46.502758
435.546875	-46.956150
436.523438	-47.747952
437.500000	-47.407841
438.476562	-46.609028
439.453125	-46.910114
440.429688	-46.773293
441.406250	-46.789062
442.382812	-47.057972
443.359375	-47.118126
444.335938	-46.707161
445.312500	-46.843445
446.289062	-46.533119
447.265625	-46.703312
448.242188	-46.875145
449.218750	-46.683010
450.195312	-47.361717
451.171875	-47.263721
452.148438	-47.112320
453.125000	-47.509071
454.101562	-47.289024
455.078125	-47.111618
456.054688	-46.620373
457.031250	-47.196331
458.007812	-47.324383
458.984375	-47.326801
459.960938	-47.414795
460.937500	-46.981224
461.914062	-46.534420
462.890625	-47.277100
463.867188	-46.306759
464.843750	-47.319370
465.820312	-46.729343
466.796875	-47.125813
467.773438	-46.939835
468.750000	-46.656067
469.726562	-47.644451
470.703125	-47.103813
471.679688	-46.283020
472.656250	-46.161091
473.632812	-46.939102
474.609375	-47.417488
475.585938	-47.075211
476.562500	-47.272449
477.539062	-46.772793
478.515625	-46.447510
479.492188	-46.417881
480.468750	-46.692188
481.445312	-46.896687
482.421875	-46.554314
483.398438	-47.164864
484.375000	-47.425316
485.351562	-46.923790
486.328125	-47.744270
487.304688	-46.970615
488.281250	-46.897400
489.257812	-47.572372
490.234375	-47.635292
491.210938	-46.643631
492.187500	-46.600952
493.164062	-46.999783
494.140625	-46.883362
495.117188	-46.927017
496.093750	-47.135948
497.070312	-47.271748
498.046875	-47.017803
499.023438	-46.962669
500.000000	-47.220642
500.976562	-47.477028
501.953125	-46.928455
502.929688	-46.853165
503.906250	-46.372093
504.882812	-47.402397
505.859375	-47.176434
506.835938	-46.454163
507.812500	-46.928585
508.789062	-46.628540
509.765625	-47.651585
510.742188	-47.064968
511.718750	-46.546383
512.695312	-47.462551
513.671875	-47.167366
514.648438	-47.157047
515.625000	-47.443291
516.601562	-46.437016
517.578125	-46.865128
518.554688	-46.573654
519.531250	-46.554058
520.507812	-47.176727
521.484375	-47.160450
522.460938	-47.349590
523.437500	-47.235058
524.414062	-47.468037
525.390625	-47.708855
526.367188	-47.285797
527.343750	-46.388390
528.320312	-46.177277
529.296875	-46.605625
530.273438	-46.567043
531.250000	-46.795662
532.226562	-46.974594
533.203125	-47.006687
534.179688	-46.932545
535.156250	-47.495197
536.132812	-46.854427
537.109375	-47.220646
538.085938	-47.285934
539.062500	-46.692001
540.039062	-46.787247
541.015625	-47.509537
541.992188	-46.673168
542.968750	-46.995720
543.945312	-47.232311
544.921875	-47.016903
545.898438	-46.613186
546.875000	-47.277691
547.851562	-46.757507
548.828125	-48.202579
549.804688	-48.258392
550.781250	-46.283134
551.757812	-46.959908
552.734375	-46.644653
553.710938	-46.655441
554.687500	-47.022816
555.664062	-46.498329
556.640625	-46.926250
557.617188	-46.760941
558.593750	-47.637871
559.570312	-47.417057
560.546875	-47.334290
561.523438	-46.391010
562.500000	-47.124866
563.476562	-46.999119
564.453125	-47.217609
565.429688	-46.457588
566.406250	-46.754761
567.382812	-46.668781
568.359375	-46.671127
569.335938	-46.542538
570.312500	-47.309734
571.289062	-47.347916
572.265625	-46.830429
573.242188	-47.084953
574.218750	-46.736568
575.195312	-46.441051
576.171875	-47.315426
577.148438	-47.337048
578.125000	-46.528107
579.101562	-47.781242
580.078125	-47.832737
581.054688	-46.594170
582.031250	-46.858315
583.007812	-47.491611
583.984375	-46.592407
584.960938	-46.951324
585.937500	-47.339294
586.914062	-47.389420
587.890625	-47.151054
588.867188	-47.367119
589.843750	-47.678364
590.820312	-46.865681
591.796875	-46.707146
592.773438	-47.505112
593.750000	-47.172932
594.726562	-46.700443
595.703125	-47.020428
596.679688	-46.780529
597.656250	-46.801281
598.632812	-47.152374
599.609375	-46.725899
600.585938	-46.572334
601.562500	-47.228481
602.539062	-45.782108
603.515625	-47.927589
604.492188	-47.053818
605.468750	-46.479107
606.445312	-47.110546
607.421875	-47.861275
608.398438	-46.873291
609.375000	-46.196793
610.351562	-47.041260
611.328125	-46.833496
612.304688	-46.960270
613.281250	-47.191315
614.257812	-47.050957
615.234375	-47.133224
616.210938	-47.021530
617.187500	-46.636177
618.164062	-46.434418
619.140625	-46.814575
620.117188	-46.452332
621.093750	-47.363670
622.070312	-46.793694
623.046875	-47.221039
624.023438	-47.032841
625.000000	-46.708801
625.976562	-46.808800
626.953125	-46.566978
627.929688	-46.181808
628.906250	-45.911282
629.882812	-45.850777
630.859375	-46.344437
631.835938	-46.898624
632.812500	-46.606953
633.789062	-47.094517
634.765625	-47.486572
635.742188	-46.865398
636.718750	-46.467445
637.695312	-47.443386
638.671875	-46.511269
639.648438	-47.039295
640.625000	-46.398922
641.601562	-47.023022
642.578125	-47.595428
643.554688	-48.169258
644.531250	-47.330681
645.507812	-47.430511
646.484375	-47.431187
647.460938	-46.359558
648.437500	-46.932209
649.414062	-46.592880
650.390625	-46.890087
651.367188	-47.246086
652.343750	-46.505966
653.320312	-47.074532
654.296875	-47.121319
655.273438	-46.612007
656.250000	-46.202599
657.226562	-46.239113
658.203125	-46.759159
659.179688	-47.125381
660.156250	-47.831295
661.132812	-46.837036
662.109375	-46.763542
663.085938	-47.583065
664.062500	-47.145626
665.039062	-47.189480
666.015625	-47.174725
666.992188	-46.168419
667.968750	-46.812061
668.945312	-47.046074
669.921875	-46.686787
670.898438	-47.230549
671.875000	-47.053734
672.851562	-47.275150
673.828125	-46.673370
674.804688	-47.231461
675.781250	-47.653278
676.757812	-47.799252
677.734375	-46.496826
678.710938	-46.905754
679.687500	-46.858150
680.664062	-46.347427
681.640625	-47.445072
682.617188	-46.891998
683.593750	-46.488724
684.570312	-47.127354
685.546875	-45.904736
686.523438	-47.004227
687.500000	-46.239799
688.476562	-47.126484
689.453125	-46.490463
690.429688	-46.806965
691.406250	-46.496372
692.382812	-46.900410
693.359375	-47.124596
694.335938	-46.458553
695.312500	-47.458607
696.289062	-47.056694
697.265625	-47.250237
698.242188	-46.928566
699.218750	-47.317589
700.195312	-47.013863
701.171875	-46.441677
702.148438	-47.098957
703.125000	-46.855614
704.101562	-46.621437
705.078125	-46.791618
706.054688	-47.057312
707.031250	-46.695503
708.007812	-46.764393
708.984375	-47.036209
709.960938	-46.811756
710.937500	-47.416412
711.914062	-47.068710
712.890625	-46.897202
713.867188	-46.977528
714.843750	-47.333641
715.820312	-47.259617
716.796875	-46.993385
717.773438	-46.989723
718.750000	-47.322346
719.726562	-46.775646
720.703125	-47.338463
721.679688	-47.239639
722.656250	-46.949207
723.632812	-46.581173
724.609375	-46.994164
725.585938	-47.500317
726.562500	-47.400024
727.539062	-46.565212
728.515625	-47.012711
729.492188	-47.195889
730.468750	-46.586399
731.445312	-47.047306
732.421875	-46.925068
733.398438	-46.296112
734.375000	-47.764160
735.351562	-47.094971
736.328125	-47.150002
737.304688	-47.003960
738.281250	-47.238541
739.257812	-46.693317
740.234375	-47.029327
741.210938	-46.652660
742.187500	-46.912800
743.164062	-47.129604
744.140625	-46.330238
745.117188	-47.759804
746.093750	-47.677055
747.070312	-46.250034
748.046875	-46.737293
749.023438	-46.300045
750.000000	-46.498116
750.976562	-46.756886
751.953125	-47.387001
752.929688	-46.580162
753.906250	-46.456444
754.882812	-46.770420
755.859375	-46.982025
756.835938	-46.982826
757.812500	-46.989185
758.789062	-46.688267
759.765625	-47.501373
760.742188	-47.389202
761.718750	-47.133564
762.695312	-46.710541
763.671875	-47.390415
764.648438	-46.742210
765.625000	-46.900089
766.601562	-47.064281
767.578125	-46.827522
768.554688	-46.970760
769.531250	-47.262501
770.507812	-47.331112
771.484375	-46.978863
772.460938	-46.655636
773.437500	-46.703804
774.414062	-47.230232
775.390625	-46.716438
776.367188	-47.028568
777.343750	-46.823208
778.320312	-47.167278
779.296875	-47.203701
780.273438	-47.170998
781.250000	-46.660557
782.226562	-46.620399
783.203125	-47.230896
784.179688	-47.037750
785.156250	-46.615894
786.132812	-46.308540
787.109375	-46.669254
788.085938	-46.378132
789.062500	-46.302979
790.039062	-46.818565
791.015625	-46.650719
791.992188	-47.036900
792.968750	-46.494602
793.945312	-47.223675
794.921875	-47.405998
795.898438	-46.324226
796.875000	-46.806648
797.851562	-46.749069
798.828125	-46.864193
799.804688	-47.248013
800.781250	-45.983170
801.757812	-46.866474
802.734375	-46.832813
803.710938	-46.953411
804.687500	-47.052631
805.664062	-47.343460
806.640625	-47.325489
807.617188	-46.863045
808.593750	-45.995758
809.570312	-46.547344
810.546875	-46.932766
811.523438	-46.560051
812.500000	-47.549633
813.476562	-46.835480
814.453125	-46.231319
815.429688	-47.071671
816.406250	-47.115486
817.382812	-46.884125
818.359375	-46.742905
819.335938	-47.157043
820.312500	-46.920097
821.289062	-46.950867
822.265625	-47.172935
823.242188	-46.659588
824.218750	-47.441166
825.195312	-47.100201
826.171875	-47.395092
827.148438	-47.367249
828.125000	-47.131176
829.101562	-46.716873
830.078125	-46.627148
831.054688	-46.128128
832.031250	-46.423939
833.007812	-47.528366
833.984375	-47.565075
834.960938	-46.159580
835.937500	-46.626366
836.914062	-47.302120
837.890625	-46.633217
838.867188	-46.966248
839.843750	-47.199097
840.820312	-47.719860
841.796875	-47.321800
842.773438	-46.572227
843.750000	-47.247311
844.726562	-46.595295
845.703125	-46.223446
846.679688	-46.682400
847.656250	-46.415367
848.632812	-46.643085
849.609375	-46.782627
850.585938	-47.560669
851.562500	-47.502941
852.539062	-47.364433
853.515625	-47.135189
854.492188	-47.565929
855.468750	-46.628521
856.445312	-47.103374
857.421875	-46.613937
858.398438	-46.778011
859.375000	-47.318207
860.351562	-46.716320
861.328125	-46.348206
862.304688	-46.982307
863.281250	-46.736122
864.257812	-47.519985
865.234375	-46.823727
866.210938	-46.883118
867.187500	-46.548256
868.164062	-46.520008
869.140625	-46.406605
870.117188	-47.291729
871.093750	-46.903389
872.070312	-47.778862
873.046875	-47.495552
874.023438	-46.313213
875.000000	-47.549114
875.976562	-46.592640
876.953125	-46.672874
877.929688	-46.811291
878.906250	-47.574280
879.882812	-47.167286
880.859375	-46.873226
881.835938	-46.896812
882.812500	-46.992050
883.789062	-46.841496
884.765625	-46.400608
885.742188	-45.794930
886.718750	-46.935184
887.695312	-47.786190
888.671875	-47.364983
889.648438	-46.985161
890.625000	-46.579575
891.601562	-46.917843
892.578125	-46.851547
893.554688	-46.386925
894.531250	-46.863590
895.507812	-46.396347
896.484375	-46.900417
897.460938	-46.482529
898.437500	-46.963684
899.414062	-46.622520
900.390625	-46.494286
901.367188	-47.363609
902.343750	-46.476868
903.320312	-46.777782
904.296875	-47.127872
905.273438	-46.733887
906.250000	-46.677124
907.226562	-47.093197
908.203125	-46.684505
909.179688	-47.118431
910.156250	-46.922306
911.132812	-47.797756
912.109375	-46.574280
913.085938	-46.630753
914.062500	-47.642281
915.039062	-47.197559
916.015625	-46.830864
916.992188	-46.608585
917.968750	-47.474384
918.945312	-47.259678
919.921875	-46.729763
920.898438	-46.907616
921.875000	-46.762413
922.851562	-47.132538
923.828125	-47.574936
924.804688	-47.014072
925.781250	-46.807644
926.757812	-47.479103
927.734375	-46.775097
928.710938	-47.050137
929.687500	-47.507965
930.664062	-47.506477
931.640625	-46.912636
932.617188	-46.652676
933.593750	-46.858719
934.570312	-47.000504
935.546875	-47.395142
936.523438	-46.932476
937.500000	-46.915619
938.476562	-47.205799
939.453125	-47.646282
940.429688	-47.184372
941.406250	-47.415569
942.382812	-47.982143
943.359375	-47.510326
944.335938	-46.912991
945.312500	-46.563469
946.289062	-46.962837
947.265625	-46.647682
948.242188	-47.009190
949.218750	-46.230434
950.195312	-47.485985
951.171875	-47.283287
952.148438	-47.591553
953.125000	-46.952087
954.101562	-46.851177
955.078125	-47.085293
956.054688	-47.260036
957.031250	-46.418461
958.007812	-46.488003
958.984375	-46.892490
959.960938	-47.409439
960.937500	-46.116940
961.914062	-47.067413
962.890625	-46.592686
963.867188	-46.734261
964.843750	-46.624107
965.820312	-47.186657
966.796875	-47.185616
967.773438	-46.274071
968.750000	-46.796776
969.726562	-46.304707
970.703125	-47.184349
971.679688	-47.125587
972.656250	-45.862949
973.632812	-46.921799
974.609375	-46.735992
975.585938	-46.359150
976.562500	-47.391418
977.539062	-47.251472
978.515625	-46.241337
979.492188	-45.894299
980.468750	-46.679008
981.445312	-46.677326
982.421875	-47.601425
983.398438	-46.976662
984.375000	-46.984440
985.351562	-46.854565
986.328125	-47.253841
987.304688	-47.369621
988.281250	-47.047989
989.257812	-46.655479
990.234375	-47.089306
991.210938	-46.964016
992.187500	-47.307037
993.164062	-47.586300
994.140625	-46.727016
995.117188	-46.085999
996.093750	-46.465893
997.070312	-47.013241
998.046875	-46.112747
999.023438	-47.262215
1000.000000	-46.761326
1000.976562	-46.378120
1001.953125	-47.235779
1002.929688	-46.681694
1003.906250	-47.698940
1004.882812	-46.282780
1005.859375	-46.408379
1006.835938	-46.753189
1007.812500	-46.729698
1008.789062	-47.004856
1009.765625	-47.912113
1010.742188	-46.991562
1011.718750	-46.651554
1012.695312	-46.940376
1013.671875	-47.295109
1014.648438	-47.287605
1015.625000	-46.852123
1016.601562	-46.858616
1017.578125	-46.689526
1018.554688	-47.028275
1019.531250	-47.446445
1020.507812	-46.595390
1021.484375	-46.772850
1022.460938	-46.959911
1023.437500	-47.353760
1024.414062	-46.980652
1025.390625	-48.125721
1026.367188	-47.425022
1027.343750	-46.657310
1028.320312	-46.725945
1029.296875	-46.654285
1030.273438	-47.233501
1031.250000	-46.813507
1032.226562	-47.645874
1033.203125	-46.444153
1034.179688	-46.111786
1035.156250	-46.071548
1036.132812	-46.857262
1037.109375	-47.005829
1038.085938	-46.796669
1039.062500	-46.712326
1040.039062	-47.885075
1041.015625	-47.767685
1041.992188	-46.600624
1042.968750	-46.441097
1043.945312	-47.211380
1044.921875	-47.711239
1045.898438	-47.309174
1046.875000	-46.869991
1047.851562	-46.608692
1048.828125	-47.121536
1049.804688	-47.212967
1050.781250	-46.316151
1051.757812	-47.077072
1052.734375	-46.589485
1053.710938	-46.674137
1054.687500	-47.048332
1055.664062	-46.582535
1056.640625	-46.003864
1057.617188	-47.161316
1058.593750	-47.242596
1059.570312	-47.368790
1060.546875	-46.911674
1061.523438	-45.936844
1062.500000	-46.899994
1063.476562	-47.337734
1064.453125	-47.252792
1065.429688	-47.211407
1066.406250	-48.023426
1067.382812	-46.769337
1068.359375	-46.788216
1069.335938	-46.991077
1070.312500	-47.012375
1071.289062	-46.646702
1072.265625	-46.949844
1073.242188	-47.476177
1074.218750	-46.748486
1075.195312	-46.795696
1076.171875	-47.364746
1077.148438	-46.814144
1078.125000	-46.737843
1079.101562	-47.031868
1080.078125	-46.681580
1081.054688	-46.619705
1082.031250	-47.111053
1083.007812	-47.206848
1083.984375	-46.288155
1084.960938	-47.498173
1085.937500	-47.130310
1086.914062	-47.204575
1087.890625	-47.128399
1088.867188	-46.154583
1089.843750	-47.933666
1090.820312	-47.167927
1091.796875	-47.255875
1092.773438	-47.637497
1093.750000	-46.242012
1094.726562	-46.267181
1095.703125	-47.188301
1096.679688	-46.860165
1097.656250	-47.277393
1098.632812	-47.533234
1099.609375	-47.178856
1100.585938	-46.308701
1101.562500	-46.912975
1102.539062	-46.667995
1103.515625	-47.195538
1104.492188	-46.955776
1105.468750	-47.384842
1106.445312	-46.873108
1107.421875	-46.791130
1108.398438	-47.379089
1109.375000	-47.193310
1110.351562	-47.679302
1111.328125	-46.789749
1112.304688	-47.563217
1113.281250	-47.143070
1114.257812	-46.474957
1115.234375	-46.758045
1116.210938	-46.535561
1117.187500	-46.439575
1118.164062	-46.815388
1119.140625	-46.544567
1120.117188	-46.724335
1121.093750	-47.121807
1122.070312	-46.876480
1123.046875	-47.042450
1124.023438	-47.415478
1125.000000	-46.925556
1125.976562	-47.341530
1126.953125	-47.000889
1127.929688	-46.836975
1128.906250	-47.079197
1129.882812	-47.198856
1130.859375	-47.044056
1131.835938	-46.240868
1132.812500	-46.860485
1133.789062	-46.718918
1134.765625	-47.467838
1135.742188	-47.350254
1136.718750	-47.544903
1137.695312	-46.455238
1138.671875	-46.526848
1139.648438	-47.343590
1140.625000	-47.048485
1141.601562	-47.194443
1142.578125	-46.650410
1143.554688	-46.760895
1144.531250	-46.911770
1145.507812	-47.287312
1146.484375	-46.766182
1147.460938	-47.283463
1148.437500	-46.370178
1149.414062	-47.271042
1150.390625	-46.718807
1151.367188	-47.300114
1152.343750	-46.483948
1153.320312	-46.490799
1154.296875	-46.977520
1155.273438	-46.980293
1156.250000	-47.493145
1157.226562	-47.713081
1158.203125	-47.076546
1159.179688	-46.536411
1160.156250	-47.308529
1161.132812	-47.077225
1162.109375	-47.176434
1163.085938	-47.215019
1164.062500	-46.956657
1165.039062	-47.008728
1166.015625	-46.640186
1166.992188	-47.475452
1167.968750	-47.092693
1168.945312	-46.748947
1169.921875	-47.310703
1170.898438	-46.947868
1171.875000	-47.471001
1172.851562	-47.919636
1173.828125	-46.532936
1174.804688	-46.918255
1175.781250	-46.488789
1176.757812	-46.649117
1177.734375	-46.554089
1178.710938	-46.677963
1179.687500	-46.753555
1180.664062	-47.469933
1181.640625	-47.066463
1182.617188	-46.003815
1183.593750	-47.219646
1184.570312	-47.533958
1185.546875	-46.703121
1186.523438	-46.794697
1187.500000	-46.756786
1188.476562	-47.142170
1189.453125	-46.842838
1190.429688	-47.216629
1191.406250	-46.893795
1192.382812	-47.781395
1193.359375	-46.982738
1194.335938	-47.099663
1195.312500	-47.651981
1196.289062	-47.287037
1197.265625	-47.488247
1198.242188	-46.310856
1199.218750	-47.234367
1200.195312	-46.503216
1201.171875	-46.407921
1202.148438	-46.775967
1203.125000	-46.394638
1204.101562	-46.561687
1205.078125	-47.032654
1206.054688	-46.985939
1207.031250	-46.978664
1208.007812	-47.208595
1208.984375	-46.409405
1209.960938	-46.357246
1210.937500	-47.388481
1211.914062	-46.984650
1212.890625	-45.989231
1213.867188	-47.122849
1214.843750	-46.591965
1215.820312	-46.938297
1216.796875	-47.512749
1217.773438	-46.910175
1218.750000	-47.282944
1219.726562	-46.083630
1220.703125	-46.815918
1221.679688	-47.392765
1222.656250	-47.252491
1223.632812	-47.803978
1224.609375	-46.507122
1225.585938	-46.573502
1226.562500	-46.994713
1227.539062	-47.307293
1228.515625	-47.055523
1229.492188	-46.897606
1230.468750	-47.474022
1231.445312	-46.463139
1232.421875	-47.264179
1233.398438	-47.276264
1234.375000	-46.729717
1235.351562	-46.605984
1236.328125	-47.368141
1237.304688	-46.655788
1238.281250	-46.794147
1239.257812	-47.345459
1240.234375	-46.619839
1241.210938	-46.655857
1242.187500	-46.902618
1243.164062	-46.477383
1244.140625	-46.829411
1245.117188	-46.987377
1246.093750	-46.950047
1247.070312	-46.599621
1248.046875	-47.182476
1249.023438	-46.863724
1250.000000	-46.770077
1250.976562	-47.160816
1251.953125	-47.092827
1252.929688	-47.280659
1253.906250	-46.419743
1254.882812	-46.421570
1255.859375	-47.268482
1256.835938	-46.743187
1257.812500	-47.197811
1258.789062	-47.406170
1259.765625	-47.231976
1260.742188	-46.835613
1261.718750	-46.380947
1262.695312	-47.144043
1263.671875	-47.210636
1264.648438	-46.432163
1265.625000	-46.655987
1266.601562	-47.626389
1267.578125	-46.581696
1268.554688	-47.274895
1269.531250	-47.409779
1270.507812	-46.017914
1271.484375	-46.986843
1272.460938	-47.371693
1273.437500	-46.388699
1274.414062	-46.521992
1275.390625	-46.998024
1276.367188	-46.932571
1277.343750	-46.999203
1278.320312	-46.855190
1279.296875	-47.658710
1280.273438	-47.268467
1281.250000	-46.580322
1282.226562	-46.630054
1283.203125	-46.898857
1284.179688	-47.219521
1285.156250	-46.904964
1286.132812	-47.072475
1287.109375	-46.335140
1288.085938	-47.290741
1289.062500	-46.376217
1290.039062	-46.081631
1291.015625	-46.686161
1291.992188	-46.640285
1292.968750	-47.174881
1293.945312	-46.459061
1294.921875	-47.968739
1295.898438	-47.021126
1296.875000	-47.054077
1297.851562	-47.063663
1298.828125	-46.626415
1299.804688	-46.797451
1300.781250	-47.425381
1301.757812	-46.879589
1302.734375	-47.126305
1303.710938	-47.236702
1304.687500	-46.564926
1305.664062	-46.947746
1306.640625	-46.753479
1307.617188	-46.669815
1308.593750	-47.623077
1309.570312	-47.855076
1310.546875	-46.984924
1311.523438	-47.304977
1312.500000	-47.068642
1313.476562	-47.250637
1314.453125	-47.066402
1315.429688	-46.234417
1316.406250	-46.012787
1317.382812	-46.382797
1318.359375	-46.548965
1319.335938	-46.855961
1320.312500	-46.463440
1321.289062	-46.441795
1322.265625	-46.037506
1323.242188	-47.001999
1324.218750	-46.829788
1325.195312	-46.870174
1326.171875	-47.059353
1327.148438	-46.492847
1328.125000	-46.945557
1329.101562	-47.595573
1330.078125	-47.292110
1331.054688	-47.288994
1332.031250	-46.815712
1333.007812	-47.587765
1333.984375	-47.403858
1334.960938	-46.936932
1335.937500	-47.056526
1336.914062	-46.489799
1337.890625	-47.539337
1338.867188	-47.496887
1339.843750	-47.348125
1340.820312	-47.574310
1341.796875	-47.130936
1342.773438	-46.653755
1343.750000	-46.534195
1344.726562	-47.026730
1345.703125	-47.251209
1346.679688	-46.598530
1347.656250	-47.709976
1348.632812	-46.853172
1349.609375	-46.726826
1350.585938	-46.793571
1351.562500	-46.672737
1352.539062	-46.358349
1353.515625	-46.928204
1354.492188	-47.405010
1355.468750	-47.106853
1356.445312	-47.471046
1357.421875	-48.008125
1358.398438	-47.083897
1359.375000	-46.695923
1360.351562	-47.010876
1361.328125	-47.147633
1362.304688	-46.403542
1363.281250	-47.541004
1364.257812	-46.866493
1365.234375	-46.535030
1366.210938	-46.977268
1367.187500	-46.891552
1368.164062	-46.310837
1369.140625	-46.819111
1370.117188	-47.305721
1371.093750	-46.732761
1372.070312	-47.191265
1373.046875	-46.371120
1374.023438	-46.849640
1375.000000	-47.548504
1375.976562	-46.961575
1376.953125	-47.325012
1377.929688	-46.071297
1378.906250	-47.162628
1379.882812	-47.504601
1380.859375	-47.197739
1381.835938	-47.737206
1382.812500	-46.633488
1383.789062	-46.799252
1384.765625	-46.586132
1385.742188	-46.857433
1386.718750	-47.044132
1387.695312	-46.331810
1388.671875	-46.701725
1389.648438	-46.749462
1390.625000	-47.612354
1391.601562	-47.663605
1392.578125	-47.033459
1393.554688	-46.603210
1394.531250	-47.526619
1395.507812	-46.346806
1396.484375	-46.869968
1397.460938	-46.567505
1398.437500	-46.929214
1399.414062	-47.182400
1400.390625	-47.278500
1401.367188	-46.680099
1402.343750	-46.373917
1403.320312	-47.020859
1404.296875	-46.970276
1405.273438	-47.321770
1406.250000	-46.983746
1407.226562	-46.160366
1408.203125	-47.025192
1409.179688	-46.843983
1410.156250	-46.955578
1411.132812	-46.851788
1412.109375	-46.659248
1413.085938	-46.318493
1414.062500	-46.751270
1415.039062	-46.950127
1416.015625	-47.138325
1416.992188	-46.936443
1417.968750	-46.653313
1418.945312	-46.386654
1419.921875	-47.071468
1420.898438	-46.906178
1421.875000	-46.546124
1422.851562	-47.118526
1423.828125	-46.775848
1424.804688	-47.007675
1425.781250	-46.160053
1426.757812	-47.458572
1427.734375	-47.876427
1428.710938	-46.859093
1429.687500	-46.501358
1430.664062	-46.646622
1431.640625	-46.726234
1432.617188	-46.483387
1433.593750	-46.329880
1434.570312	-46.522495
1435.546875	-46.317684
1436.523438	-46.714321
1437.500000	-47.588646
1438.476562	-47.040321
1439.453125	-47.270718
1440.429688	-47.210640
1441.406250	-46.764114
1442.382812	-47.342194
1443.359375	-47.266270
1444.335938	-45.959930
1445.312500	-47.140755
1446.289062	-46.372780
1447.265625	-47.208790
1448.242188	-47.890606
1449.218750	-47.065102
1450.195312	-47.448692
1451.171875	-46.405151
1452.148438	-47.191795
1453.125000	-46.647388
1454.101562	-47.143070
1455.078125	-47.323765
1456.054688	-46.792824
1457.031250	-46.158028
1458.007812	-46.552711
1458.984375	-47.423901
1459.960938	-46.374191
1460.937500	-46.645000
1461.914062	-46.816505
1462.890625	-46.432213
1463.867188	-46.769455
1464.843750	-47.364964
1465.820312	-47.297676
1466.796875	-46.750183
1467.773438	-46.988495
1468.750000	-46.850349
1469.726562	-46.799637
1470.703125	-47.117905
1471.679688	-46.503860
1472.656250	-47.118790
1473.632812	-46.963371
1474.609375	-47.135559
1475.585938	-46.981819
1476.562500	-47.536465
1477.539062	-47.094994
1478.515625	-46.739716
1479.492188	-46.066460
1480.468750	-46.411823
1481.445312	-47.447475
1482.421875	-47.180267
1483.398438	-47.035530
1484.375000	-46.686275
1485.351562	-46.871239
1486.328125	-48.223598
1487.304688	-47.308273
1488.281250	-47.273220
1489.257812	-46.896889
1490.234375	-46.729939
1491.210938	-47.135147
1492.187500	-46.749653
1493.164062	-47.091766
1494.140625	-46.910160
1495.117188	-46.300949
1496.093750	-46.652176
1497.070312	-47.068813
1498.046875	-47.027130
1499.023438	-47.462292
1500.000000	-47.086769
1500.976562	-46.743786
1501.953125	-46.452965
1502.929688	-47.655380
1503.906250	-46.806404
1504.882812	-47.403854
1505.859375	-46.290043
1506.835938	-47.200550
1507.812500	-46.497646
1508.789062	-47.321293
1509.765625	-47.132359
1510.742188	-47.195568
1511.718750	-47.874573
1512.695312	-47.260891
1513.671875	-46.835827
1514.648438	-46.802383
1515.625000	-47.475834
1516.601562	-47.539547
1517.578125	-46.542702
1518.554688	-46.061489
1519.531250	-46.598320
1520.507812	-46.857311
1521.484375	-47.682404
1522.460938	-46.835651
1523.437500	-47.250355
1524.414062	-47.507652
1525.390625	-46.739567
1526.367188	-47.335789
1527.343750	-47.660915
1528.320312	-46.593361
1529.296875	-47.223045
1530.273438	-46.283844
1531.250000	-46.631809
1532.226562	-47.549114
1533.203125	-46.234386
1534.179688	-47.574482
1535.156250	-47.135052
1536.132812	-46.520210
1537.109375	-46.227921
1538.085938	-46.536118
1539.062500	-47.058434
1540.039062	-46.862423
1541.015625	-46.196678
1541.992188	-46.835144
1542.968750	-46.951389
1543.945312	-47.029144
1544.921875	-47.191723
1545.898438	-47.416397
1546.875000	-46.692150
1547.851562	-47.567585
1548.828125	-47.653442
1549.804688	-46.572575
1550.781250	-46.925232
1551.757812	-46.994350
1552.734375	-47.505882
1553.710938	-47.044250
1554.687500	-46.845776
1555.664062	-46.746624
1556.640625	-46.689144
1557.617188	-46.977837
1558.593750	-46.203907
1559.570312	-46.643486
1560.546875	-47.074249
1561.523438	-46.762360
1562.500000	-47.623409
1563.476562	-47.571678
1564.453125	-46.862206
1565.429688	-46.995037
1566.406250	-47.964859
1567.382812	-46.467388
1568.359375	-46.595097
1569.335938	-46.959133
1570.312500	-46.785328
1571.289062	-46.630890
1572.265625	-47.198105
1573.242188	-46.730133
1574.218750	-47.028255
1575.195312	-47.695057
1576.171875	-47.154858
1577.148438	-47.335365
1578.125000	-47.275425
1579.101562	-47.735729
1580.078125	-47.215023
1581.054688	-47.072296
1582.031250	-46.948193
1583.007812	-46.723797
1583.984375	-47.277344
1584.960938	-46.597179
1585.937500	-47.103645
1586.914062	-46.973557
1587.890625	-47.325134
1588.867188	-46.912560
1589.843750	-46.858059
1590.820312	-46.948986
1591.796875	-46.761116
1592.773438	-46.757996
1593.750000	-46.645939
1594.726562	-48.132397
1595.703125	-46.863964
1596.679688	-46.777302
1597.656250	-47.225529
1598.632812	-48.510731
1599.609375	-47.597794
1600.585938	-47.318924
1601.562500	-47.408031
1602.539062	-46.841759
1603.515625	-46.691246
1604.492188	-46.566971
1605.468750	-47.432297
1606.445312	-47.054333
1607.421875	-46.721806
1608.398438	-46.758045
1609.375000	-46.872707
1610.351562	-47.066006
1611.328125	-47.085335
1612.304688	-46.673969
1613.281250	-47.323376
1614.257812	-47.188240
1615.234375	-46.893600
1616.210938	-46.528221
1617.187500	-47.104797
1618.164062	-47.212734
1619.140625	-46.944241
1620.117188	-47.256767
1621.093750	-46.828453
1622.070312	-46.818684
1623.046875	-46.700768
1624.023438	-47.378284
1625.000000	-47.329155
1625.976562	-46.912464
1626.953125	-47.070354
1627.929688	-46.539696
1628.906250	-46.491745
1629.882812	-46.567081
1630.859375	-47.345547
1631.835938	-46.965561
1632.812500	-46.224129
1633.789062	-46.830330
1634.765625	-46.993462
1635.742188	-47.133301
1636.718750	-46.657383
1637.695312	-47.110439
1638.671875	-47.659672
1639.648438	-47.354412
1640.625000	-47.148998
1641.601562	-46.498444
1642.578125	-47.210991
1643.554688	-47.258286
1644.531250	-47.233852
1645.507812	-47.139339
1646.484375	-47.395073
1647.460938	-46.998924
1648.437500	-47.354836
1649.414062	-47.036507
1650.390625	-47.538544
1651.367188	-47.415623
1652.343750	-46.577957
1653.320312	-46.594292
1654.296875	-46.707104
1655.273438	-47.160645
1656.250000	-46.926254
1657.226562	-46.693729
1658.203125	-47.398190
1659.179688	-47.459736
1660.156250	-47.020195
1661.132812	-46.558968
1662.109375	-46.518009
1663.085938	-46.605709
1664.062500	-46.519970
1665.039062	-46.671852
1666.015625	-47.295647
1666.992188	-46.571312
1667.968750	-47.066563
1668.945312	-47.699661
1669.921875	-47.077175
1670.898438	-47.213779
1671.875000	-47.205479
1672.851562	-46.806679
1673.828125	-46.159946
1674.804688	-46.882820
1675.781250	-46.906162
1676.757812	-47.180538
1677.734375	-46.011765
1678.710938	-46.665054
1679.687500	-46.913387
1680.664062	-47.229477
1681.640625	-46.981598
1682.617188	-47.207779
1683.593750	-47.018333
1684.570312	-46.671295
1685.546875	-47.000076
1686.523438	-46.969215
1687.500000	-47.001720
1688.476562	-46.168472
1689.453125	-46.200649
1690.429688	-46.819374
1691.406250	-47.571159
1692.382812	-46.778301
1693.359375	-46.581932
1694.335938	-47.123333
1695.312500	-47.014595
1696.289062	-47.149956
1697.265625	-46.724182
1698.242188	-47.629601
1699.218750	-47.549774
1700.195312	-46.496681
1701.171875	-47.161526
1702.148438	-46.991299
1703.125000	-47.283695
1704.101562	-46.563812
1705.078125	-46.959476
1706.054688	-47.072819
1707.031250	-46.895405
1708.007812	-46.916515
1708.984375	-47.264454
1709.960938	-47.295250
1710.937500	-46.400303
1711.914062	-46.770107
1712.890625	-47.019573
1713.867188	-46.538548
1714.843750	-46.885403
1715.820312	-46.969891
1716.796875	-47.106800
1717.773438	-46.835388
1718.750000	-46.848961
1719.726562	-47.111092
1720.703125	-47.541706
1721.679688	-46.967297
1722.656250	-47.049099
1723.632812	-46.647194
1724.609375	-47.289326
1725.585938	-47.344639
1726.562500	-47.031166
1727.539062	-47.161312
1728.515625	-46.693439
1729.492188	-46.394035
1730.468750	-46.659359
1731.445312	-47.194477
1732.421875	-47.600681
1733.398438	-47.895634
1734.375000	-46.901653
1735.351562	-47.275257
1736.328125	-47.339832
1737.304688	-46.211285
1738.281250	-46.516613
1739.257812	-46.152901
1740.234375	-47.054401
1741.210938	-47.742496
1742.187500	-46.649178
1743.164062	-47.040741
1744.140625	-47.439514
1745.117188	-47.144241
1746.093750	-46.759789
1747.070312	-46.937500
1748.046875	-47.890820
1749.023438	-46.262913
1750.000000	-46.921043
1750.976562	-46.918442
1751.953125	-46.811199
1752.929688	-46.316624
1753.906250	-46.138527
1754.882812	-47.220150
1755.859375	-46.511925
1756.835938	-46.917618
1757.812500	-46.786884
1758.789062	-46.831764
1759.765625	-46.052658
1760.742188	-47.183392
1761.718750	-46.646820
1762.695312	-46.685677
1763.671875	-46.995110
1764.648438	-46.364735
1765.625000	-46.697460
1766.601562	-46.582836
1767.578125	-46.969936
1768.554688	-47.602951
1769.531250	-46.246788
1770.507812	-46.583008
1771.484375	-46.965515
1772.460938	-46.788330
1773.437500	-46.564575
1774.414062	-46.903576
1775.390625	-47.383770
1776.367188	-46.699036
1777.343750	-46.881252
1778.320312	-47.639225
1779.296875	-47.508923
1780.273438	-46.838219
1781.250000	-47.585556
1782.226562	-47.009041
1783.203125	-47.256329
1784.179688	-47.294079
1785.156250	-47.074585
1786.132812	-46.243523
1787.109375	-45.421227
1788.085938	-47.299461
1789.062500	-47.252018
1790.039062	-46.736279
1791.015625	-47.441975
1791.992188	-47.752373
1792.968750	-46.962448
1793.945312	-46.607578
1794.921875	-47.193783
1795.898438	-47.132362
1796.875000	-46.946091
1797.851562	-46.720749
1798.828125	-46.881119
1799.804688	-47.393532
1800.781250	-46.997047
1801.757812	-46.952641
1802.734375	-46.776760
1803.710938	-45.977493
1804.687500	-46.917404
1805.664062	-46.844185
1806.640625	-47.614758
1807.617188	-46.208870
1808.593750	-47.186829
1809.570312	-46.289307
1810.546875	-47.239178
1811.523438	-47.011402
1812.500000	-46.472683
1813.476562	-47.431023
1814.453125	-47.257088
1815.429688	-47.510010
1816.406250	-46.787346
1817.382812	-47.463097
1818.359375	-46.837784
1819.335938	-47.299835
1820.312500	-46.863159
1821.289062	-47.191963
1822.265625	-46.725723
1823.242188	-45.912735
1824.218750	-47.307446
1825.195312	-47.283096
1826.171875	-47.109642
1827.148438	-47.121788
1828.125000	-47.326191
1829.101562	-46.826405
1830.078125	-47.958744
1831.054688	-47.546967
1832.031250	-47.782993
1833.007812	-46.795555
1833.984375	-46.363163
1834.960938	-46.681332
1835.937500	-46.235252
1836.914062	-46.886009
1837.890625	-46.736778
1838.867188	-47.171562
1839.843750	-46.520741
1840.820312	-46.385086
1841.796875	-47.152458
1842.773438	-46.536285
1843.750000	-47.013405
1844.726562	-46.858578
1845.703125	-46.025944
1846.679688	-46.363029
1847.656250	-46.108746
1848.632812	-47.000877
1849.609375	-46.981022
1850.585938	-46.606853
1851.562500	-46.796585
1852.539062	-47.111801
1853.515625	-46.665070
1854.492188	-46.863369
1855.468750	-46.957745
1856.445312	-46.355087
1857.421875	-47.027020
1858.398438	-47.096008
1859.375000	-47.032673
1860.351562	-46.738941
1861.328125	-47.044952
1862.304688	-47.191879
1863.281250	-47.533070
1864.257812	-46.809990
1865.234375	-46.476704
1866.210938	-47.046894
1867.187500	-47.417164
1868.164062	-47.030155
1869.140625	-47.019917
1870.117188	-46.637768
1871.093750	-46.737030
1872.070312	-46.669338
1873.046875	-45.949326
1874.023438	-47.194672
1875.000000	-47.039352
1875.976562	-46.552761
1876.953125	-46.686012
1877.929688	-47.344322
1878.906250	-46.803776
1879.882812	-47.174057
1880.859375	-47.653408
1881.835938	-47.435833
1882.812500	-47.124058
1883.789062	-47.055782
1884.765625	-47.175468
1885.742188	-47.864510
1886.718750	-47.308334
1887.695312	-46.253880
1888.671875	-46.756634
1889.648438	-46.778591
1890.625000	-47.541431
1891.601562	-46.792316
1892.578125	-46.731102
1893.554688	-46.809509
1894.531250	-46.908871
1895.507812	-47.389133
1896.484375	-46.996468
1897.460938	-46.390003
1898.437500	-45.995731
1899.414062	-46.992290
1900.390625	-46.550072
1901.367188	-46.316040
1902.343750	-46.086933
1903.320312	-47.150127
1904.296875	-46.796696
1905.273438	-47.195309
1906.250000	-47.563625
1907.226562	-47.053455
1908.203125	-46.799583
1909.179688	-47.172565
1910.156250	-47.379650
1911.132812	-47.762043
1912.109375	-47.306507
1913.085938	-47.019520
1914.062500	-47.281345
1915.039062	-46.284218
1916.015625	-47.324291
1916.992188	-46.833935
1917.968750	-46.939041
1918.945312	-47.644985
1919.921875	-46.557911
1920.898438	-46.061432
1921.875000	-46.506336
1922.851562	-47.597206
1923.828125	-47.391563
1924.804688	-46.779243
1925.781250	-47.136322
1926.757812	-46.354015
1927.734375	-46.604897
1928.710938	-47.779186
1929.687500	-47.341385
1930.664062	-47.814224
1931.640625	-46.573597
1932.617188	-46.744389
1933.593750	-46.473194
1934.570312	-47.325893
1935.546875	-47.367840
1936.523438	-46.084610
1937.500000	-47.242661
1938.476562	-46.875076
1939.453125	-47.067970
1940.429688	-47.023403
1941.406250	-46.634453
1942.382812	-47.251244
1943.359375	-47.042347
1944.335938	-47.092060
1945.312500	-46.815037
1946.289062	-46.163738
1947.265625	-46.603703
1948.242188	-46.775845
1949.218750	-46.738239
1950.195312	-46.935871
1951.171875	-46.895454
1952.148438	-46.668350
1953.125000	-46.471733
1954.101562	-46.641975
1955.078125	-46.824905
1956.054688	-46.477242
1957.031250	-46.400555
1958.007812	-46.593891
1958.984375	-46.647701
1959.960938	-46.153790
1960.937500	-46.340786
1961.914062	-46.557346
1962.890625	-47.177444
1963.867188	-46.370266
1964.843750	-46.271423
1965.820312	-46.609352
1966.796875	-46.475212
1967.773438	-46.670963
1968.750000	-47.272049
1969.726562	-47.935757
1970.703125	-47.272976
1971.679688	-46.352554
1972.656250	-46.600636
1973.632812	-47.383785
1974.609375	-46.961330
1975.585938	-46.397476
1976.562500	-47.241234
1977.539062	-46.587547
1978.515625	-46.427895
1979.492188	-46.202427
1980.468750	-47.275440
1981.445312	-47.409157
1982.421875	-47.029186
1983.398438	-46.591709
1984.375000	-46.689178
1985.351562	-47.219296
1986.328125	-47.376476
1987.304688	-47.734043
1988.281250	-46.777283
1989.257812	-46.811172
1990.234375	-47.692162
1991.210938	-46.961308
1992.187500	-46.765205
1993.164062	-46.387901
1994.140625	-46.862511
1995.117188	-46.429565
1996.093750	-46.269073
1997.070312	-46.460186
1998.046875	-46.822651
1999.023438	-46.604828
2000.000000	-48.039955
2000.976562	-47.265755
2001.953125	-47.388947
2002.929688	-46.756390
2003.906250	-46.967209
2004.882812	-47.067673
2005.859375	-46.674133
2006.835938	-46.165234
2007.812500	-45.848289
2008.789062	-46.633270
2009.765625	-47.266426
2010.742188	-47.315273
2011.718750	-47.267941
2012.695312	-46.845512
2013.671875	-47.686424
2014.648438	-46.886677
2015.625000	-46.769966
2016.601562	-47.466354
2017.578125	-46.364586
2018.554688	-46.236355
2019.531250	-46.652054
2020.507812	-47.401722
2021.484375	-47.174152
2022.460938	-47.234413
2023.437500	-46.332832
2024.414062	-46.385708
2025.390625	-46.708244
2026.367188	-46.349880
2027.343750	-46.715023
2028.320312	-46.919975
2029.296875	-48.000145
2030.273438	-46.806808
2031.250000	-46.978359
2032.226562	-46.671818
2033.203125	-47.042770
2034.179688	-45.937637
2035.156250	-46.974880
2036.132812	-46.852833
2037.109375	-47.120338
2038.085938	-47.159283
2039.062500	-46.863972
2040.039062	-46.912270
2041.015625	-46.274551
2041.992188	-46.488659
2042.968750	-46.968533
2043.945312	-47.026817
2044.921875	-47.455009
2045.898438	-47.051044
2046.875000	-47.573547
2047.851562	-47.060383
2048.828125	-46.773006
2049.804688	-46.285969
2050.781250	-46.127911
2051.757812	-46.897125
2052.734375	-47.073757
2053.710938	-46.845348
2054.687500	-47.402546
2055.664062	-46.808189
2056.640625	-46.993900
2057.617188	-47.107647
2058.593750	-47.015568
2059.570312	-46.464851
2060.546875	-46.903728
2061.523438	-46.571648
2062.500000	-47.358826
2063.476562	-46.673077
2064.453125	-47.642845
2065.429688	-46.883457
2066.406250	-46.601963
2067.382812	-46.914207
2068.359375	-45.974617
2069.335938	-46.197079
2070.312500	-46.738289
2071.289062	-47.238037
2072.265625	-47.365681
2073.242188	-46.824043
2074.218750	-47.804592
2075.195312	-47.527534
2076.171875	-47.745319
2077.148438	-47.370457
2078.125000	-46.464390
2079.101562	-47.171738
2080.078125	-46.445854
2081.054688	-46.731346
2082.031250	-46.487762
2083.007812	-46.619175
2083.984375	-46.940628
2084.960938	-47.690369
2085.937500	-47.028656
2086.914062	-46.861237
2087.890625	-46.973236
2088.867188	-46.807980
2089.843750	-46.945499
2090.820312	-46.190613
2091.796875	-46.959805
2092.773438	-46.931713
2093.750000	-46.859848
2094.726562	-46.952076
2095.703125	-47.554611
2096.679688	-46.990726
2097.656250	-47.539825
2098.632812	-47.185410
2099.609375	-46.984489
2100.585938	-46.928699
2101.562500	-46.628021
2102.539062	-46.447262
2103.515625	-47.312363
2104.492188	-47.728943
2105.468750	-46.280533
2106.445312	-47.410248
2107.421875	-47.828545
2108.398438	-46.938839
2109.375000	-46.980995
2110.351562	-46.534683
2111.328125	-47.310825
2112.304688	-47.862747
2113.281250	-46.517189
2114.257812	-47.198318
2115.234375	-46.796349
2116.210938	-46.328754
2117.187500	-46.847900
2118.164062	-46.429878
2119.140625	-47.563915
2120.117188	-47.132500
2121.093750	-47.154488
2122.070312	-47.479656
2123.046875	-47.360111
2124.023438	-46.438225
2125.000000	-47.044857
2125.976562	-46.537251
2126.953125	-46.731789
2127.929688	-46.765751
2128.906250	-46.598248
2129.882812	-46.963123
2130.859375	-47.068619
2131.835938	-46.577534
2132.812500	-47.522045
2133.789062	-46.654522
2134.765625	-46.669735
2135.742188	-47.249969
2136.718750	-46.839497
2137.695312	-47.378582
2138.671875	-47.264671
2139.648438	-47.566875
2140.625000	-47.333721
2141.601562	-46.205399
2142.578125	-46.929520
2143.554688	-46.775761
2144.531250	-47.015629
2145.507812	-47.581478
2146.484375	-47.356598
2147.460938	-47.196308
2148.437500	-46.790478
2149.414062	-46.669048
2150.390625	-47.183350
2151.367188	-46.591812
2152.343750	-46.092007
2153.320312	-46.723545
2154.296875	-47.295242
2155.273438	-46.931786
2156.250000	-46.709431
2157.226562	-46.897240
2158.203125	-46.989300
2159.179688	-47.423302
2160.156250	-46.526470
2161.132812	-47.446541
2162.109375	-47.066364
2163.085938	-46.341499
2164.062500	-46.271832
2165.039062	-46.773525
2166.015625	-46.896721
2166.992188	-46.555695
2167.968750	-47.233971
2168.945312	-47.651295
2169.921875	-47.677189
2170.898438	-47.124523
2171.875000	-46.936218
2172.851562	-47.295147
2173.828125	-47.134670
2174.804688	-47.249691
2175.781250	-47.106968
2176.757812	-46.939014
2177.734375	-47.338787
2178.710938	-46.815807
2179.687500	-46.358658
2180.664062	-46.686131
2181.640625	-46.273403
2182.617188	-47.198448
2183.593750	-47.179665
2184.570312	-46.612400
2185.546875	-47.289726
2186.523438	-46.801113
2187.500000	-46.984848
2188.476562	-46.515293
2189.453125	-46.741222
2190.429688	-46.966579
2191.406250	-46.749386
2192.382812	-46.468296
2193.359375	-47.526283
2194.335938	-46.436028
2195.312500	-47.900772
2196.289062	-47.342125
2197.265625	-47.510010
2198.242188	-46.756813
2199.218750	-46.735870
2200.195312	-47.413845
2201.171875	-46.792065
2202.148438	-47.345566
2203.125000	-46.543255
2204.101562	-46.201904
2205.078125	-46.648495
2206.054688	-47.135624
2207.031250	-46.894875
2208.007812	-46.660221
2208.984375	-47.720097
2209.960938	-47.271767
2210.937500	-47.484573
2211.914062	-47.444469
2212.890625	-46.372063
2213.867188	-46.320080
2214.843750	-46.608219
2215.820312	-46.377728
2216.796875	-46.529457
2217.773438	-47.428158
2218.750000	-47.058434
2219.726562	-47.226460
2220.703125	-47.194191
2221.679688	-46.266857
2222.656250	-46.551941
2223.632812	-47.338108
2224.609375	-46.154312
2225.585938	-46.579315
2226.562500	-47.347271
2227.539062	-47.018044
2228.515625	-46.458424
2229.492188	-46.717495
2230.468750	-47.286144
2231.445312	-47.322128
2232.421875	-46.962879
2233.398438	-47.969311
2234.375000	-46.636860
2235.351562	-47.821457
2236.328125	-48.270145
2237.304688	-47.468403
2238.281250	-46.933502
2239.257812	-46.619759
2240.234375	-46.622982
2241.210938	-46.310371
2242.187500	-46.689495
2243.164062	-46.416615
2244.140625	-46.757729
2245.117188	-46.965862
2246.093750	-47.653854
2247.070312	-46.640827
2248.046875	-47.485489
2249.023438	-47.241425
2250.000000	-47.377518
2250.976562	-46.893513
2251.953125	-47.457615
2252.929688	-47.671001
2253.906250	-46.948780
2254.882812	-46.907925
2255.859375	-47.049206
2256.835938	-46.788925
2257.812500	-47.400215
2258.789062	-47.661171
2259.765625	-47.776360
2260.742188	-45.939281
2261.718750	-46.402313
2262.695312	-46.296001
2263.671875	-45.672520
2264.648438	-46.754539
2265.625000	-47.496048
2266.601562	-46.305851
2267.578125	-46.348228
2268.554688	-46.222652
2269.531250	-46.740063
2270.507812	-46.567890
2271.484375	-46.811371
2272.460938	-46.918644
2273.437500	-47.732018
2274.414062	-46.935448
2275.390625	-46.647911
2276.367188	-47.442989
2277.343750	-46.478374
2278.320312	-47.128117
2279.296875	-47.299599
2280.273438	-46.804371
2281.250000	-47.281189
2282.226562	-47.017643
2283.203125	-46.535942
2284.179688	-47.344402
2285.156250	-46.337536
2286.132812	-47.070217
2287.109375	-47.364189
2288.085938	-47.053020
2289.062500	-47.780376
2290.039062	-46.596157
2291.015625	-46.807095
2291.992188	-46.432751
2292.968750	-46.615028
2293.945312	-47.197170
2294.921875	-47.081654
2295.898438	-47.036072
2296.875000	-47.113804
2297.851562	-46.518509
2298.828125	-46.847706
2299.804688	-47.140064
2300.781250	-47.143963
2301.757812	-47.394703
2302.734375	-47.604221
2303.710938	-46.357059
2304.687500	-47.307850
2305.664062	-48.023689
2306.640625	-47.024662
2307.617188	-46.921745
2308.593750	-47.826290
2309.570312	-46.508595
2310.546875	-47.132343
2311.523438	-47.192959
2312.500000	-45.878693
2313.476562	-45.781693
2314.453125	-46.971996
2315.429688	-46.691727
2316.406250	-47.140972
2317.382812	-47.570335
2318.359375	-47.098537
2319.335938	-47.243053
2320.312500	-46.606102
2321.289062	-47.041969
2322.265625	-47.074627
2323.242188	-46.873325
2324.218750	-46.991226
2325.195312	-46.231586
2326.171875	-47.601036
2327.148438	-47.060165
2328.125000	-46.530579
2329.101562	-46.586884
2330.078125	-46.255157
2331.054688	-46.331505
2332.031250	-46.269264
2333.007812	-47.203457
2333.984375	-47.316071
2334.960938	-46.569393
2335.937500	-46.313530
2336.914062	-46.657368
2337.890625	-48.378811
2338.867188	-47.600513
2339.843750	-46.817451
2340.820312	-46.682003
2341.796875	-46.951382
2342.773438	-47.064533
2343.750000	-47.038033
2344.726562	-46.928066
2345.703125	-46.509941
2346.679688	-46.727730
2347.656250	-46.880966
2348.632812	-46.960606
2349.609375	-46.574837
2350.585938	-46.872730
2351.562500	-47.336262
2352.539062	-46.510021
2353.515625	-47.158909
2354.492188	-47.152016
2355.468750	-47.304264
2356.445312	-46.600342
2357.421875	-46.759224
2358.398438	-47.099697
2359.375000	-47.306492
2360.351562	-47.072659
2361.328125	-46.340137
2362.304688	-46.249718
2363.281250	-47.262966
2364.257812	-46.488987
2365.234375	-46.682571
2366.210938	-47.419357
2367.187500	-46.705101
2368.164062	-46.651978
2369.140625	-46.546429
2370.117188	-47.032879
2371.093750	-45.845871
2372.070312	-46.788200
2373.046875	-47.339119
2374.023438	-46.953014
2375.000000	-46.982857
2375.976562	-46.965698
2376.953125	-47.492046
2377.929688	-47.465118
2378.906250	-47.342453
2379.882812	-47.530609
2380.859375	-47.216888
2381.835938	-47.455547
2382.812500	-46.662186
2383.789062	-47.290558
2384.765625	-46.693298
2385.742188	-47.481541
2386.718750	-46.785297
2387.695312	-46.465141
2388.671875	-47.112511
2389.648438	-47.279636
2390.625000	-46.678902
2391.601562	-47.653286
2392.578125	-47.622330
2393.554688	-46.909740
2394.531250	-46.577896
2395.507812	-47.234074
2396.484375	-46.741318
2397.460938	-47.476196
2398.437500	-46.857433
2399.414062	-47.192253
2400.390625	-47.262264
2401.367188	-47.329254
2402.343750	-46.987278
2403.320312	-47.177155
2404.296875	-46.206902
2405.273438	-46.794434
2406.250000	-46.901676
2407.226562	-46.877769
2408.203125	-47.207275
2409.179688	-46.639290
2410.156250	-46.518879
2411.132812	-46.424519
2412.109375	-46.997849
2413.085938	-46.708141
2414.062500	-47.396698
2415.039062	-46.905666
2416.015625	-47.303528
2416.992188	-46.739609
2417.968750	-47.672764
2418.945312	-47.300201
2419.921875	-46.688831
2420.898438	-47.246399
2421.875000	-47.301937
2422.851562	-47.846172
2423.828125	-47.598171
2424.804688	-47.438763
2425.781250	-47.156242
2426.757812	-46.588314
2427.734375	-47.242634
2428.710938	-46.759312
2429.687500	-47.027821
2430.664062	-46.927387
2431.640625	-46.575993
2432.617188	-46.863911
2433.593750	-46.604321
2434.570312	-46.379059
2435.546875	-47.780663
2436.523438	-47.513241
2437.500000	-47.382236
2438.476562	-47.169453
2439.453125	-46.741684
2440.429688	-46.886009
2441.406250	-47.635231
2442.382812	-47.569107
2443.359375	-47.427372
2444.335938	-46.939529
2445.312500	-46.817379
2446.289062	-47.084156
2447.265625	-46.652367
2448.242188	-46.707108
2449.218750	-46.013729
2450.195312	-46.761169
2451.171875	-46.420685
2452.148438	-46.737000
2453.125000	-47.014553
2454.101562	-46.967106
2455.078125	-47.250526
2456.054688	-47.191566
2457.031250	-48.012035
2458.007812	-47.244637
2458.984375	-46.733704
2459.960938	-46.793400
2460.937500	-46.478794
2461.914062	-46.438541
2462.890625	-47.426826
2463.867188	-47.196442
2464.843750	-46.222210
2465.820312	-46.979858
2466.796875	-46.916859
2467.773438	-46.561966
2468.750000	-46.243725
2469.726562	-47.055115
2470.703125	-46.847427
2471.679688	-46.906517
2472.656250	-47.225258
2473.632812	-47.215477
2474.609375	-46.881603
2475.585938	-47.419971
2476.562500	-47.228081
2477.539062	-46.807468
2478.515625	-46.787415
2479.492188	-46.611111
2480.468750	-47.058273
2481.445312	-46.639027
2482.421875	-46.643345
2483.398438	-46.950195
2484.375000	-46.385326
2485.351562	-46.276695
2486.328125	-46.838436
2487.304688	-47.171055
2488.281250	-46.951996
2489.257812	-46.559475
2490.234375	-46.561295
2491.210938	-47.067329
2492.187500	-47.288792
2493.164062	-47.480038
2494.140625	-46.613106
2495.117188	-46.747696
2496.093750	-46.653950
2497.070312	-46.822594
2498.046875	-46.920197
2499.023438	-46.932663
2500.000000	-46.975452
2500.976562	-47.252209
2501.953125	-46.397720
2502.929688	-47.420238
2503.906250	-46.875286
2504.882812	-46.794151
2505.859375	-46.504433
2506.835938	-46.916996
2507.812500	-46.556538
2508.789062	-46.522198
2509.765625	-46.986671
2510.742188	-46.499588
2511.718750	-47.431576
2512.695312	-46.890007
2513.671875	-46.890686
2514.648438	-46.598038
2515.625000	-46.555183
2516.601562	-46.708740
2517.578125	-47.241756
2518.554688	-46.498669
2519.531250	-47.269447
2520.507812	-46.778183
2521.484375	-47.650181
2522.460938	-46.907024
2523.437500	-46.918797
2524.414062	-47.186718
2525.390625	-47.686279
2526.367188	-47.196358
2527.343750	-47.212322
2528.320312	-46.057487
2529.296875	-46.306286
2530.273438	-47.480350
2531.250000	-46.925812
2532.226562	-46.643105
2533.203125	-46.590759
2534.179688	-46.383095
2535.156250	-46.933529
2536.132812	-47.329151
2537.109375	-47.172775
2538.085938	-46.491222
2539.062500	-46.897961
2540.039062	-47.326694
2541.015625	-47.222008
2541.992188	-48.001511
2542.968750	-46.933052
2543.945312	-46.650032
2544.921875	-47.524750
2545.898438	-46.246780
2546.875000	-46.490982
2547.851562	-47.553249
2548.828125	-47.276203
2549.804688	-47.310436
2550.781250	-46.419865
2551.757812	-46.865421
2552.734375	-46.803711
2553.710938	-48.302864
2554.687500	-46.819893
2555.664062	-46.534184
2556.640625	-46.725090
2557.617188	-45.894253
2558.593750	-47.444340
2559.570312	-46.830631
2560.546875	-47.336479
2561.523438	-46.923439
2562.500000	-46.596020
2563.476562	-47.401207
2564.453125	-46.925293
2565.429688	-46.745014
2566.406250	-46.641670
2567.382812	-47.738846
2568.359375	-46.315964
2569.335938	-46.419765
2570.312500	-46.926132
2571.289062	-47.432053
2572.265625	-47.798927
2573.242188	-46.760101
2574.218750	-46.296494
2575.195312	-47.153820
2576.171875	-47.732437
2577.148438	-46.928349
2578.125000	-46.574028
2579.101562	-46.631546
2580.078125	-46.163223
2581.054688	-46.889961
2582.031250	-47.123138
2583.007812	-46.915787
2583.984375	-47.154507
2584.960938	-46.422268
2585.937500	-46.751591
2586.914062	-46.677620
2587.890625	-46.587154
2588.867188	-46.904839
2589.843750	-47.384445
2590.820312	-47.410847
2591.796875	-47.341274
2592.773438	-46.757061
2593.750000	-46.450352
2594.726562	-46.529755
2595.703125	-47.111153
2596.679688	-47.661549
2597.656250	-46.676220
2598.632812	-46.680267
2599.609375	-46.840199
2600.585938	-46.531105
2601.562500	-46.200565
2602.539062	-46.749340
2603.515625	-47.319057
2604.492188	-46.641220
2605.468750	-46.475018
2606.445312	-46.420765
2607.421875	-47.053333
2608.398438	-46.794971
2609.375000	-47.181465
2610.351562	-47.550304
2611.328125	-47.067223
2612.304688	-47.970009
2613.281250	-47.021008
2614.257812	-47.567631
2615.234375	-47.107151
2616.210938	-46.412857
2617.187500	-46.571056
2618.164062	-47.115799
2619.140625	-46.909985
2620.117188	-46.990650
2621.093750	-47.094543
2622.070312	-46.576714
2623.046875	-46.775887
2624.023438	-47.758053
2625.000000	-47.739201
2625.976562	-47.730064
2626.953125	-46.919018
2627.929688	-46.545364
2628.906250	-46.417007
2629.882812	-46.593353
2630.859375	-46.487915
2631.835938	-47.164146
2632.812500	-47.294308
2633.789062	-46.975925
2634.765625	-46.699997
2635.742188	-47.366379
2636.718750	-46.900963
2637.695312	-46.914215
2638.671875	-46.880478
2639.648438	-46.969040
2640.625000	-46.978951
2641.601562	-47.433968
2642.578125	-47.344479
2643.554688	-46.908562
2644.531250	-46.651665
2645.507812	-47.225372
2646.484375	-47.079056
2647.460938	-46.265079
2648.437500	-46.396175
2649.414062	-47.080299
2650.390625	-47.302315
2651.367188	-47.184063
2652.343750	-46.577682
2653.320312	-46.454700
2654.296875	-46.119118
2655.273438	-46.633263
2656.250000	-46.878983
2657.226562	-46.519951
2658.203125	-47.069210
2659.179688	-47.134377
2660.156250	-46.615818
2661.132812	-46.679554
2662.109375	-46.585361
2663.085938	-47.181847
2664.062500	-47.215351
2665.039062	-47.388702
2666.015625	-47.120308
2666.992188	-46.860107
2667.968750	-46.147366
2668.945312	-46.043522
2669.921875	-46.431065
2670.898438	-46.561703
2671.875000	-47.877209
2672.851562	-47.191364
2673.828125	-47.153278
2674.804688	-46.692158
2675.781250	-46.860199
2676.757812	-47.097500
2677.734375	-46.603092
2678.710938	-46.840984
2679.687500	-46.235710
2680.664062	-47.539398
2681.640625	-46.939812
2682.617188	-47.539082
2683.593750	-47.506142
2684.570312	-47.785690
2685.546875	-48.233158
2686.523438	-47.708500
2687.500000	-47.525909
2688.476562	-46.480167
2689.453125	-47.573174
2690.429688	-46.810505
2691.406250	-47.028660
2692.382812	-46.446064
2693.359375	-47.018135
2694.335938	-47.071228
2695.312500	-47.122391
2696.289062	-46.238384
2697.265625	-45.885670
2698.242188	-46.545486
2699.218750	-47.034718
2700.195312	-46.480709
2701.171875	-46.989204
2702.148438	-46.394035
2703.125000	-46.667732
2704.101562	-46.764584
2705.078125	-46.920589
2706.054688	-46.498657
2707.031250	-46.920971
2708.007812	-46.839066
2708.984375	-47.380268
2709.960938	-47.720341
2710.937500	-47.912037
2711.914062	-46.297028
2712.890625	-47.189915
2713.867188	-46.458019
2714.843750	-46.874779
2715.820312	-47.058846
2716.796875	-47.180351
2717.773438	-47.159901
2718.750000	-46.693668
2719.726562	-46.924938
2720.703125	-46.851894
2721.679688	-46.625084
2722.656250	-46.665058
2723.632812	-46.282616
2724.609375	-47.164207
2725.585938	-46.722584
2726.562500	-46.401726
2727.539062	-47.293453
2728.515625	-47.710110
2729.492188	-47.258472
2730.468750	-46.834488
2731.445312	-47.180073
2732.421875	-46.618347
2733.398438	-46.939571
2734.375000	-47.114822
2735.351562	-46.547268
2736.328125	-46.644279
2737.304688	-47.685455
2738.281250	-47.365082
2739.257812	-47.262676
2740.234375	-46.390381
2741.210938	-47.274082
2742.187500	-47.506756
2743.164062	-47.927460
2744.140625	-47.046158
2745.117188	-47.653305
2746.093750	-47.161602
2747.070312	-47.536060
2748.046875	-46.909481
2749.023438	-47.178181
2750.000000	-46.858360
2750.976562	-46.986294
2751.953125	-46.838024
2752.929688	-47.236176
2753.906250	-47.042877
2754.882812	-47.035694
2755.859375	-46.796249
2756.835938	-47.229725
2757.812500	-47.245766
2758.789062	-47.532848
2759.765625	-47.402554
2760.742188	-47.573498
2761.718750	-46.491035
2762.695312	-48.159164
2763.671875	-47.281490
2764.648438	-46.821918
2765.625000	-46.744209
2766.601562	-47.454865
2767.578125	-48.072445
2768.554688	-46.737431
2769.531250	-46.827950
2770.507812	-46.234035
2771.484375	-46.905888
2772.460938	-47.316624
2773.437500	-47.474724
2774.414062	-46.235882
2775.390625	-47.682617
2776.367188	-46.770393
2777.343750	-47.582130
2778.320312	-47.247871
2779.296875	-47.185921
2780.273438	-46.700676
2781.250000	-47.708000
2782.226562	-47.603565
2783.203125	-47.059479
2784.179688	-46.534977
2785.156250	-45.754925
2786.132812	-47.571167
2787.109375	-46.802498
2788.085938	-46.996174
2789.062500	-46.663498
2790.039062	-46.065807
2791.015625	-47.292614
2791.992188	-47.164024
2792.968750	-47.069542
2793.945312	-46.819973
2794.921875	-47.020767
2795.898438	-46.951363
2796.875000	-47.174911
2797.851562	-46.285061
2798.828125	-47.564308
2799.804688	-47.004215
2800.781250	-46.828835
2801.757812	-47.268642
2802.734375	-47.236916
2803.710938	-46.650681
2804.687500	-46.942783
2805.664062	-47.508118
2806.640625	-47.528122
2807.617188	-46.862659
2808.593750	-47.076843
2809.570312	-47.133457
2810.546875	-46.428860
2811.523438	-46.212711
2812.500000	-46.293861
2813.476562	-47.210613
2814.453125	-46.402252
2815.429688	-47.455753
2816.406250	-46.423351
2817.382812	-47.499348
2818.359375	-47.381962
2819.335938	-47.637497
2820.312500	-47.042076
2821.289062	-46.057190
2822.265625	-46.659813
2823.242188	-47.359707
2824.218750	-46.257366
2825.195312	-46.966358
2826.171875	-47.624306
2827.148438	-46.586136
2828.125000	-47.260220
2829.101562	-46.797787
2830.078125	-47.730270
2831.054688	-47.297192
2832.031250	-47.388107
2833.007812	-46.846333
2833.984375	-47.395176
2834.960938	-47.049549
2835.937500	-46.356522
2836.914062	-47.270687
2837.890625	-45.596481
2838.867188	-46.715866
2839.843750	-47.475029
2840.820312	-47.628941
2841.796875	-46.700012
2842.773438	-46.916267
2843.750000	-47.794025
2844.726562	-47.311314
2845.703125	-47.505634
2846.679688	-47.015541
2847.656250	-47.096008
2848.632812	-47.345158
2849.609375	-47.763302
2850.585938	-46.561428
2851.562500	-46.247566
2852.539062	-46.059677
2853.515625	-46.750080
2854.492188	-46.487465
2855.468750	-46.501316
2856.445312	-46.601276
2857.421875	-46.561398
2858.398438	-46.578136
2859.375000	-46.577934
2860.351562	-45.687534
2861.328125	-46.586811
2862.304688	-47.341362
2863.281250	-46.389725
2864.257812	-47.125084
2865.234375	-46.340984
2866.210938	-47.313988
2867.187500	-47.624420
2868.164062	-47.172050
2869.140625	-46.686050
2870.117188	-47.055340
2871.093750	-47.936344
2872.070312	-46.495747
2873.046875	-47.653114
2874.023438	-46.412079
2875.000000	-46.790035
2875.976562	-46.989666
2876.953125	-46.459866
2877.929688	-47.057724
2878.906250	-46.903473
2879.882812	-47.546867
2880.859375	-47.198383
2881.835938	-47.050552
2882.812500	-46.741238
2883.789062	-47.000809
2884.765625	-46.595501
2885.742188	-46.826454
2886.718750	-46.383018
2887.695312	-47.143368
2888.671875	-46.590893
2889.648438	-46.489567
2890.625000	-46.660904
2891.601562	-47.226711
2892.578125	-46.718449
2893.554688	-45.933537
2894.531250	-47.084438
2895.507812	-46.771015
2896.484375	-47.857147
2897.460938	-46.862995
2898.437500	-47.234756
2899.414062	-47.674370
2900.390625	-46.748451
2901.367188	-46.469051
2902.343750	-46.725018
2903.320312	-46.842258
2904.296875	-46.424648
2905.273438	-46.566521
2906.250000	-46.418789
2907.226562	-46.467339
2908.203125	-46.943493
2909.179688	-46.563702
2910.156250	-46.266060
2911.132812	-46.463768
2912.109375	-46.715942
2913.085938	-46.762058
2914.062500	-46.635834
2915.039062	-46.801834
2916.015625	-47.351391
2916.992188	-47.102001
2917.968750	-46.583088
2918.945312	-47.028919
2919.921875	-47.417332
2920.898438	-47.036507
2921.875000	-47.286674
2922.851562	-47.302799
2923.828125	-46.916782
2924.804688	-46.660439
2925.781250	-46.670101
2926.757812	-46.658455
2927.734375	-47.211891
2928.710938	-46.935532
2929.687500	-47.350933
2930.664062	-47.336517
2931.640625	-46.605068
2932.617188	-47.807720
2933.593750	-47.435184
2934.570312	-47.590939
2935.546875	-46.073223
2936.523438	-46.181450
2937.500000	-47.163948
2938.476562	-46.748596
2939.453125	-46.731316
2940.429688	-47.164967
2941.406250	-46.883739
2942.382812	-47.119137
2943.359375	-46.501064
2944.335938	-45.582581
2945.312500	-47.279480
2946.289062	-46.549042
2947.265625	-47.393417
2948.242188	-47.262749
2949.218750	-46.960926
2950.195312	-47.049988
2951.171875	-46.749317
2952.148438	-47.406979
2953.125000	-47.580200
2954.101562	-47.750347
2955.078125	-47.463303
2956.054688	-46.771862
2957.031250	-46.726624
2958.007812	-47.220005
2958.984375	-46.368961
2959.960938	-47.252125
2960.937500	-47.295956
2961.914062	-46.405376
2962.890625	-47.593002
2963.867188	-47.776932
2964.843750	-46.909969
2965.820312	-47.021027
2966.796875	-47.048832
2967.773438	-47.125992
2968.750000	-47.304333
2969.726562	-46.692451
2970.703125	-46.705498
2971.679688	-45.806076
2972.656250	-46.677101
2973.632812	-46.596531
2974.609375	-46.972569
2975.585938	-46.943138
2976.562500	-47.574562
2977.539062	-47.105526
2978.515625	-47.816998
2979.492188	-46.612484
2980.468750	-46.512737
2981.445312	-46.529568
2982.421875	-45.944191
2983.398438	-46.411171
2984.375000	-46.915993
2985.351562	-46.919033
2986.328125	-46.826290
2987.304688	-46.935394
2988.281250	-47.168121
2989.257812	-47.657574
2990.234375	-46.943516
2991.210938	-46.509922
2992.187500	-46.505302
2993.164062	-46.670773
2994.140625	-46.841770
2995.117188	-46.866734
2996.093750	-47.601807
2997.070312	-46.997616
2998.046875	-46.786995
2999.023438	-47.126762
3000.000000	-47.207947
3000.976562	-47.158157
3001.953125	-46.930283
3002.929688	-47.453217
3003.906250	-47.325901
3004.882812	-46.952988
3005.859375	-47.648006
3006.835938	-46.871819
3007.812500	-47.044708
3008.789062	-47.073620
3009.765625	-46.038216
3010.742188	-47.133827
3011.718750	-47.291222
3012.695312	-46.477451
3013.671875	-47.399120
3014.648438	-47.211033
3015.625000	-47.527321
3016.601562	-47.087563
3017.578125	-47.143246
3018.554688	-46.755375
3019.531250	-47.048126
3020.507812	-46.350674
3021.484375	-46.140575
3022.460938	-46.197556
3023.437500	-47.843792
3024.414062	-46.820045
3025.390625	-46.671146
3026.367188	-46.391659
3027.343750	-46.982891
3028.320312	-46.799568
3029.296875	-46.830212
3030.273438	-47.022305
3031.250000	-46.793289
3032.226562	-47.088558
3033.203125	-46.747833
3034.179688	-46.881454
3035.156250	-47.229706
3036.132812	-47.326244
3037.109375	-46.591713
3038.085938	-47.442127
3039.062500	-46.738678
3040.039062	-46.062775
3041.015625	-46.626091
3041.992188	-46.123459
3042.968750	-47.800953
3043.945312	-47.278667
3044.921875	-46.807270
3045.898438	-46.503258
3046.875000	-46.364948
3047.851562	-47.320896
3048.828125	-46.424656
3049.804688	-46.811333
3050.781250	-46.689110
3051.757812	-46.783737
3052.734375	-46.996521
3053.710938	-46.857460
3054.687500	-47.179028
3055.664062	-46.868141
3056.640625	-47.429451
3057.617188	-46.485210
3058.593750	-46.485271
3059.570312	-46.688908
3060.546875	-46.956051
3061.523438	-46.978992
3062.500000	-47.331589
3063.476562	-46.893604
3064.453125	-47.072441
3065.429688	-46.443733
3066.406250	-47.235527
3067.382812	-46.541904
3068.359375	-46.755787
3069.335938	-47.044331
3070.312500	-47.039982
3071.289062	-47.623741
3072.265625	-47.123688
3073.242188	-47.680481
3074.218750	-47.165405
3075.195312	-46.821838
3076.171875	-47.465652
3077.148438	-48.055939
3078.125000	-47.957668
3079.101562	-47.447575
3080.078125	-46.614697
3081.054688	-46.277794
3082.031250	-46.886486
3083.007812	-46.309036
3083.984375	-46.240383
3084.960938	-47.411594
3085.937500	-47.559834
3086.914062	-46.660694
3087.890625	-46.925922
3088.867188	-46.842594
3089.843750	-47.898014
3090.820312	-47.605927
3091.796875	-47.444309
3092.773438	-47.255611
3093.750000	-46.789783
3094.726562	-46.753063
3095.703125	-46.522053
3096.679688	-46.056179
3097.656250	-46.833370
3098.632812	-46.518188
3099.609375	-46.801472
3100.585938	-46.596432
3101.562500	-47.394592
3102.539062	-46.789085
3103.515625	-46.185467
3104.492188	-46.569778
3105.468750	-46.753197
3106.445312	-46.583454
3107.421875	-46.791489
3108.398438	-46.308502
3109.375000	-46.934444
3110.351562	-47.512474
3111.328125	-47.419552
3112.304688	-47.621235
3113.281250	-46.445213
3114.257812	-46.626144
3115.234375	-47.319084
3116.210938	-47.124592
3117.187500	-46.795872
3118.164062	-47.702591
3119.140625	-46.860168
3120.117188	-46.737122
3121.093750	-47.178532
3122.070312	-46.918411
3123.046875	-46.579502
3124.023438	-46.998707
3125.000000	-46.645191
3125.976562	-47.490200
3126.953125	-46.766342
3127.929688	-47.449142
3128.906250	-46.891983
3129.882812	-46.941582
3130.859375	-46.503204
3131.835938	-46.208542
3132.812500	-47.129765
3133.789062	-47.621815
3134.765625	-47.205746
3135.742188	-47.239803
3136.718750	-47.430725
3137.695312	-46.943470
3138.671875	-46.997200
3139.648438	-47.151604
3140.625000	-46.988220
3141.601562	-46.560425
3142.578125	-46.489025
3143.554688	-47.250126
3144.531250	-46.981861
3145.507812	-46.675034
3146.484375	-46.965492
3147.460938	-47.162045
3148.437500	-46.535778
3149.414062	-47.024357
3150.390625	-47.066959
3151.367188	-46.913563
3152.343750	-46.791771
3153.320312	-47.562897
3154.296875	-47.436287
3155.273438	-47.207081
3156.250000	-47.077240
3157.226562	-47.412441
3158.203125	-47.284367
3159.179688	-46.692879
3160.156250	-46.996033
3161.132812	-47.007786
3162.109375	-46.717720
3163.085938	-46.454151
3164.062500	-47.014561
3165.039062	-46.831322
3166.015625	-46.725922
3166.992188	-46.568981
3167.968750	-46.704109
3168.945312	-47.158318
3169.921875	-47.645550
3170.898438	-47.017792
3171.875000	-45.757286
3172.851562	-47.020489
3173.828125	-47.088902
3174.804688	-46.267673
3175.781250	-46.662376
3176.757812	-47.025143
3177.734375	-46.685638
3178.710938	-46.560837
3179.687500	-47.235859
3180.664062	-47.930748
3181.640625	-46.867378
3182.617188	-46.886898
3183.593750	-47.100708
3184.570312	-46.230717
3185.546875	-46.666233
3186.523438	-47.062675
3187.500000	-46.636486
3188.476562	-46.270725
3189.453125	-46.563965
3190.429688	-46.886173
3191.406250	-46.219688
3192.382812	-46.994678
3193.359375	-47.725365
3194.335938	-46.715092
3195.312500	-46.925537
3196.289062	-47.159046
3197.265625	-47.135399
3198.242188	-46.348381
3199.218750	-46.651344
3200.195312	-47.333324
3201.171875	-46.723488
3202.148438	-47.082134
3203.125000	-47.751324
3204.101562	-46.576817
3205.078125	-46.803169
3206.054688	-47.186913
3207.031250	-46.334599
3208.007812	-46.493034
3208.984375	-46.585110
3209.960938	-45.971073
3210.937500	-47.678936
3211.914062	-47.024296
3212.890625	-46.539993
3213.867188	-46.782215
3214.843750	-47.489002
3215.820312	-46.864166
3216.796875	-47.234230
3217.773438	-47.087997
3218.750000	-47.174427
3219.726562	-46.341782
3220.703125	-47.018883
3221.679688	-46.321735
3222.656250	-46.851139
3223.632812	-46.685310
3224.609375	-47.695557
3225.585938	-47.039181
3226.562500	-47.131329
3227.539062	-46.956039
3228.515625	-46.286095
3229.492188	-46.765900
3230.468750	-47.403534
3231.445312	-46.777519
3232.421875	-47.086018
3233.398438	-46.520176
3234.375000	-46.465641
3235.351562	-47.164864
3236.328125	-47.207069
3237.304688	-46.794567
3238.281250	-46.481190
3239.257812	-47.187828
3240.234375	-46.127331
3241.210938	-46.957687
3242.187500	-46.566639
3243.164062	-46.925274
3244.140625	-46.515190
3245.117188	-46.513657
3246.093750	-47.043118
3247.070312	-46.578770
3248.046875	-46.677464
3249.023438	-46.105980
3250.000000	-47.108982
3250.976562	-46.786240
3251.953125	-47.115242
3252.929688	-46.481365
3253.906250	-47.251877
3254.882812	-46.633656
3255.859375	-47.557331
3256.835938	-46.478237
3257.812500	-46.566547
3258.789062	-46.961704
3259.765625	-47.443703
3260.742188	-47.715565
3261.718750	-46.647377
3262.695312	-47.293205
3263.671875	-46.489685
3264.648438	-46.267551
3265.625000	-46.962975
3266.601562	-47.208702
3267.578125	-47.596672
3268.554688	-46.389866
3269.531250	-46.315094
3270.507812	-46.868736
3271.484375	-47.251217
3272.460938	-47.122490
3273.437500	-47.145954
3274.414062	-46.980682
3275.390625	-47.019211
3276.367188	-47.146301
3277.343750	-46.321808
3278.320312	-46.900326
3279.296875	-46.535683
3280.273438	-47.056293
3281.250000	-47.348545
3282.226562	-46.932915
3283.203125	-47.101974
3284.179688	-46.452179
3285.156250	-47.160866
3286.132812	-47.132252
3287.109375	-46.647335
3288.085938	-47.175587
3289.062500	-47.465118
3290.039062	-46.584026
3291.015625	-46.844543
3291.992188	-46.648758
3292.968750	-46.534462
3293.945312	-46.850887
3294.921875	-45.957222
3295.898438	-47.659794
3296.875000	-46.807655
3297.851562	-46.496513
3298.828125	-46.978683
3299.804688	-47.326424
3300.781250	-46.828575
3301.757812	-46.279072
3302.734375	-46.328430
3303.710938	-47.167946
3304.687500	-46.581448
3305.664062	-46.943207
3306.640625	-47.475124
3307.617188	-47.029655
3308.593750	-46.717232
3309.570312	-46.538670
3310.546875	-46.162903
3311.523438	-46.982674
3312.500000	-46.921642
3313.476562	-46.176315
3314.453125	-46.197910
3315.429688	-47.320263
3316.406250	-46.783360
3317.382812	-46.982521
3318.359375	-47.134880
3319.335938	-47.683712
3320.312500	-47.143867
3321.289062	-45.837269
3322.265625	-47.215473
3323.242188	-46.593147
3324.218750	-46.402264
3325.195312	-47.109974
3326.171875	-46.785084
3327.148438	-46.935852
3328.125000	-46.661400
3329.101562	-46.025341
3330.078125	-47.273083
3331.054688	-46.669579
3332.031250	-47.405151
3333.007812	-46.521824
3333.984375	-47.168873
3334.960938	-46.587769
3335.937500	-46.494053
3336.914062	-47.429581
3337.890625	-46.660004
3338.867188	-46.964310
3339.843750	-47.214249
3340.820312	-46.804119
3341.796875	-47.527924
3342.773438	-46.684223
3343.750000	-47.396412
3344.726562	-47.474037
3345.703125	-46.678352
3346.679688	-47.567566
3347.656250	-46.997021
3348.632812	-46.148098
3349.609375	-46.784035
3350.585938	-46.159508
3351.562500	-47.145786
3352.539062	-46.644081
3353.515625	-47.010456
3354.492188	-46.566143
3355.468750	-46.899769
3356.445312	-47.175049
3357.421875	-46.715969
3358.398438	-47.361488
3359.375000	-47.433487
3360.351562	-47.590130
3361.328125	-47.096867
3362.304688	-46.851444
3363.281250	-46.435780
3364.257812	-47.104351
3365.234375	-46.284809
3366.210938	-46.242596
3367.187500	-47.094475
3368.164062	-47.492458
3369.140625	-47.527206
3370.117188	-46.812256
3371.093750	-46.820827
3372.070312	-46.720886
3373.046875	-47.040188
3374.023438	-46.232304
3375.000000	-46.496643
3375.976562	-46.736023
3376.953125	-46.986958
3377.929688	-46.945591
3378.906250	-46.606075
3379.882812	-47.116226
3380.859375	-47.196625
3381.835938	-47.318306
3382.812500	-46.740845
3383.789062	-47.523140
3384.765625	-47.451500
3385.742188	-46.806789
3386.718750	-47.538834
3387.695312	-46.670193
3388.671875	-46.248203
3389.648438	-46.732403
3390.625000	-47.055580
3391.601562	-47.011208
3392.578125	-46.876381
3393.554688	-46.790569
3394.531250	-46.106838
3395.507812	-46.927177
3396.484375	-46.471901
3397.460938	-46.533451
3398.437500	-46.402374
3399.414062	-46.517258
3400.390625	-46.427219
3401.367188	-46.727619
3402.343750	-46.943073
3403.320312	-46.615913
3404.296875	-46.868656
3405.273438	-46.884792
3406.250000	-47.075710
3407.226562	-46.345913
3408.203125	-47.215206
3409.179688	-46.880016
3410.156250	-47.148674
3411.132812	-47.075058
3412.109375	-47.262604
3413.085938	-46.564320
3414.062500	-46.472813
3415.039062	-46.464268
3416.015625	-46.822769
3416.992188	-47.808090
3417.968750	-46.968174
3418.945312	-46.645092
3419.921875	-46.959805
3420.898438	-46.416016
3421.875000	-46.819839
3422.851562	-46.624477
3423.828125	-47.134533
3424.804688	-46.400932
3425.781250	-47.248402
3426.757812	-47.458061
3427.734375	-46.751011
3428.710938	-47.330730
3429.687500	-46.659027
3430.664062	-46.458504
3431.640625	-47.369072
3432.617188	-46.810268
3433.593750	-47.130688
3434.570312	-46.839466
3435.546875	-46.994186
3436.523438	-46.447884
3437.500000	-47.033539
3438.476562	-47.324963
3439.453125	-47.453564
3440.429688	-47.306698
3441.406250	-46.948822
3442.382812	-46.832035
3443.359375	-46.954472
3444.335938	-47.034405
3445.312500	-47.339241
3446.289062	-47.146484
3447.265625	-46.586433
3448.242188	-46.732044
3449.218750	-47.101795
3450.195312	-46.536114
3451.171875	-46.728935
3452.148438	-47.057182
3453.125000	-46.841408
3454.101562	-46.959148
3455.078125	-47.365849
3456.054688	-46.912140
3457.031250	-46.266846
3458.007812	-47.264694
3458.984375	-46.492279
3459.960938	-47.077305
3460.937500	-46.916428
3461.914062	-46.172924
3462.890625	-46.617031
3463.867188	-47.307308
3464.843750	-47.548500
3465.820312	-47.096504
3466.796875	-46.401890
3467.773438	-47.291401
3468.750000	-46.703136
3469.726562	-47.073532
3470.703125	-46.928490
3471.679688	-47.497002
3472.656250	-46.672672
3473.632812	-46.817654
3474.609375	-47.026302
3475.585938	-47.415691
3476.562500	-47.441734
3477.539062	-47.227711
3478.515625	-47.035061
3479.492188	-47.569515
3480.468750	-47.314270
3481.445312	-47.153027
3482.421875	-46.712837
3483.398438	-46.895370
3484.375000	-46.479462
3485.351562	-45.978611
3486.328125	-47.315582
3487.304688	-46.916752
3488.281250	-46.726341
3489.257812	-47.208725
3490.234375	-46.837231
3491.210938	-47.397652
3492.187500	-47.134518
3493.164062	-47.113319
3494.140625	-47.562763
3495.117188	-47.302814
3496.093750	-46.728493
3497.070312	-46.852283
3498.046875	-46.752502
3499.023438	-46.717010
3500.000000	-48.034386
3500.976562	-47.049225
3501.953125	-46.773121
3502.929688	-47.423740
3503.906250	-47.256073
3504.882812	-46.641850
3505.859375	-46.952705
3506.835938	-46.247112
3507.812500	-46.781860
3508.789062	-47.144272
3509.765625	-47.227936
3510.742188	-47.002514
3511.718750	-46.882221
3512.695312	-47.579353
3513.671875	-47.034359
3514.648438	-46.839962
3515.625000	-47.271709
3516.601562	-47.295124
3517.578125	-46.550930
3518.554688	-46.403507
3519.531250	-47.111568
3520.507812	-47.471710
3521.484375	-47.025860
3522.460938	-47.007843
3523.437500	-46.324711
3524.414062	-46.751007
3525.390625	-47.226978
3526.367188	-47.413277
3527.343750	-46.176052
3528.320312	-47.676472
3529.296875	-47.565727
3530.273438	-46.390396
3531.250000	-46.321838
3532.226562	-46.316643
3533.203125	-46.749573
3534.179688	-47.566727
3535.156250	-46.684776
3536.132812	-47.065022
3537.109375	-47.215641
3538.085938	-47.683365
3539.062500	-46.835644
3540.039062	-47.036743
3541.015625	-46.833679
3541.992188	-46.690338
3542.968750	-46.618896
3543.945312	-46.573376
3544.921875	-46.550880
3545.898438	-47.248535
3546.875000	-47.306858
3547.851562	-47.161324
3548.828125	-48.002682
3549.804688	-47.388599
3550.781250	-46.976776
3551.757812	-47.475441
3552.734375	-46.941395
3553.710938	-46.479977
3554.687500	-46.844032
3555.664062	-47.129890
3556.640625	-46.560719
3557.617188	-46.628532
3558.593750	-46.240032
3559.570312	-46.555988
3560.546875	-46.614120
3561.523438	-46.705399
3562.500000	-46.665451
3563.476562	-46.889553
3564.453125	-47.226562
3565.429688	-46.575001
3566.406250	-46.950211
3567.382812	-47.257362
3568.359375	-47.443806
3569.335938	-48.065159
3570.312500	-47.214195
3571.289062	-47.363358
3572.265625	-46.518890
3573.242188	-47.176941
3574.218750	-46.856133
3575.195312	-46.652767
3576.171875	-47.130905
3577.148438	-46.290413
3578.125000	-46.761505
3579.101562	-46.976646
3580.078125	-46.585186
3581.054688	-46.792538
3582.031250	-46.850670
3583.007812	-46.442379
3583.984375	-46.317734
3584.960938	-47.091778
3585.937500	-47.130833
3586.914062	-46.980518
3587.890625	-46.228046
3588.867188	-47.165569
3589.843750	-46.592587
3590.820312	-46.342930
3591.796875	-47.156013
3592.773438	-47.368973
3593.750000	-47.136974
3594.726562	-47.070320
3595.703125	-46.800297
3596.679688	-46.979744
3597.656250	-47.104500
3598.632812	-47.027073
3599.609375	-46.893997
3600.585938	-46.657799
3601.562500	-46.479843
3602.539062	-46.930939
3603.515625	-46.955734
3604.492188	-47.413502
3605.468750	-46.398434
3606.445312	-46.523018
3607.421875	-46.598103
3608.398438	-46.412674
3609.375000	-47.197887
3610.351562	-46.848988
3611.328125	-46.129829
3612.304688	-46.877243
3613.281250	-46.585918
3614.257812	-47.439503
3615.234375	-46.610832
3616.210938	-47.031479
3617.187500	-47.023968
3618.164062	-47.334366
3619.140625	-47.009811
3620.117188	-47.190189
3621.093750	-47.129906
3622.070312	-47.078884
3623.046875	-46.230572
3624.023438	-46.704399
3625.000000	-46.597446
3625.976562	-47.523045
3626.953125	-46.736179
3627.929688	-47.212872
3628.906250	-46.680050
3629.882812	-46.659878
3630.859375	-46.469376
3631.835938	-47.776138
3632.812500	-47.356388
3633.789062	-47.230160
3634.765625	-46.561081
3635.742188	-47.023666
3636.718750	-46.730293
3637.695312	-47.552723
3638.671875	-46.086712
3639.648438	-46.903629
3640.625000	-46.799370
3641.601562	-46.174915
3642.578125	-47.380039
3643.554688	-46.665565
3644.531250	-46.938705
3645.507812	-47.040897
3646.484375	-47.067234
3647.460938	-46.814583
3648.437500	-47.770741
3649.414062	-47.299362
3650.390625	-47.158424
3651.367188	-47.028191
3652.343750	-47.005966
3653.320312	-47.023487
3654.296875	-47.638672
3655.273438	-46.462147
3656.250000	-46.790649
3657.226562	-46.470291
3658.203125	-46.203426
3659.179688	-46.658127
3660.156250	-46.766693
3661.132812	-46.354889
3662.109375	-46.774700
3663.085938	-47.007385
3664.062500	-46.881100
3665.039062	-46.600208
3666.015625	-46.679455
3666.992188	-46.589413
3667.968750	-46.807652
3668.945312	-46.425800
3669.921875	-47.305885
3670.898438	-46.801983
3671.875000	-46.606308
3672.851562	-47.299675
3673.828125	-46.672798
3674.804688	-46.726612
3675.781250	-46.810627
3676.757812	-46.930027
3677.734375	-46.687725
3678.710938	-46.716362
3679.687500	-46.910526
3680.664062	-46.590538
3681.640625	-46.842567
3682.617188	-47.327286
3683.593750	-47.869167
3684.570312	-47.488747
3685.546875	-46.890663
3686.523438	-46.971783
3687.500000	-46.517220
3688.476562	-47.436642
3689.453125	-47.261166
3690.429688	-45.784351
3691.406250	-46.981003
3692.382812	-46.934437
3693.359375	-47.132984
3694.335938	-46.586468
3695.312500	-46.680275
3696.289062	-47.599541
3697.265625	-47.256199
3698.242188	-46.673801
3699.218750	-46.679958
3700.195312	-46.571510
3701.171875	-46.969707
3702.148438	-46.279732
3703.125000	-47.042694
3704.101562	-46.448524
3705.078125	-47.605747
3706.054688	-47.655842
3707.031250	-47.298923
3708.007812	-47.342850
3708.984375	-47.145176
3709.960938	-47.099174
3710.937500	-47.143669
3711.914062	-47.119202
3712.890625	-47.093925
3713.867188	-47.496727
3714.843750	-46.937366
3715.820312	-47.605762
3716.796875	-47.053452
3717.773438	-47.266991
3718.750000	-47.311874
3719.726562	-46.160355
3720.703125	-46.493652
3721.679688	-47.344536
3722.656250	-46.434685
3723.632812	-46.019047
3724.609375	-46.908077
3725.585938	-46.169147
3726.562500	-46.756027
3727.539062	-47.132099
3728.515625	-47.104752
3729.492188	-46.442684
3730.468750	-46.702240
3731.445312	-46.880909
3732.421875	-47.532692
3733.398438	-46.914902
3734.375000	-47.118073
3735.351562	-47.277065
3736.328125	-47.282074
3737.304688	-47.087490
3738.281250	-46.997116
3739.257812	-46.416771
3740.234375	-46.959911
3741.210938	-47.727039
3742.187500	-46.849365
3743.164062	-46.806995
3744.140625	-46.568863
3745.117188	-46.773964
3746.093750	-46.878441
3747.070312	-46.781265
3748.046875	-47.493729
3749.023438	-47.181236
3750.000000	-47.398746
3750.976562	-46.871548
3751.953125	-46.605087
3752.929688	-46.251389
3753.906250	-46.558758
3754.882812	-46.362061
3755.859375	-47.332619
3756.835938	-46.542889
3757.812500	-46.781208
3758.789062	-46.901833
3759.765625	-46.906441
3760.742188	-46.131424
3761.718750	-46.559708
3762.695312	-47.273178
3763.671875	-47.638870
3764.648438	-46.344357
3765.625000	-46.478436
3766.601562	-46.750824
3767.578125	-46.553814
3768.554688	-47.108997
3769.531250	-47.234104
3770.507812	-46.866917
3771.484375	-46.636005
3772.460938	-47.012863
3773.437500	-46.537037
3774.414062	-46.290134
3775.390625	-47.092094
3776.367188	-47.751953
3777.343750	-47.050297
3778.320312	-46.321548
3779.296875	-46.065266
3780.273438	-47.533585
3781.250000	-46.442818
3782.226562	-46.461426
3783.203125	-47.059715
3784.179688	-46.497879
3785.156250	-46.622688
3786.132812	-46.631618
3787.109375	-46.279266
3788.085938	-46.378201
3789.062500	-46.559223
3790.039062	-46.537758
3791.015625	-47.293991
3791.992188	-47.161705
3792.968750	-47.028389
3793.945312	-47.156239
3794.921875	-47.115715
3795.898438	-47.894016
3796.875000	-47.125568
3797.851562	-47.109093
3798.828125	-47.253902
3799.804688	-47.001423
3800.781250	-46.837753
3801.757812	-46.950390
3802.734375	-48.089233
3803.710938	-46.601864
3804.687500	-46.295956
3805.664062	-46.546169
3806.640625	-47.038307
3807.617188	-47.356060
3808.593750	-47.237061
3809.570312	-46.382896
3810.546875	-46.769447
3811.523438	-46.784107
3812.500000	-47.052418
3813.476562	-47.057213
3814.453125	-47.386684
3815.429688	-46.994457
3816.406250	-46.257618
3817.382812	-47.210426
3818.359375	-47.816292
3819.335938	-47.595528
3820.312500	-48.022896
3821.289062	-47.017887
3822.265625	-47.215961
3823.242188	-47.034801
3824.218750	-46.997604
3825.195312	-45.942883
3826.171875	-46.798260
3827.148438	-47.110756
3828.125000	-47.171005
3829.101562	-47.186405
3830.078125	-46.827332
3831.054688	-46.539471
3832.031250	-46.122612
3833.007812	-46.687897
3833.984375	-46.848068
3834.960938	-45.904789
3835.937500	-47.023098
3836.914062	-47.024563
3837.890625	-46.101742
3838.867188	-47.248055
3839.843750	-47.446087
3840.820312	-47.518337
3841.796875	-47.408482
3842.773438	-46.610985
3843.750000	-46.981022
3844.726562	-46.329277
3845.703125	-47.195591
3846.679688	-46.485428
3847.656250	-45.902546
3848.632812	-47.006203
3849.609375	-47.343956
3850.585938	-47.337917
3851.562500	-46.965485
3852.539062	-46.836338
3853.515625	-47.007645
3854.492188	-46.474617
3855.468750	-47.550224
3856.445312	-47.039040
3857.421875	-47.194340
3858.398438	-46.993740
3859.375000	-46.266670
3860.351562	-46.986847
3861.328125	-46.814175
3862.304688	-47.119396
3863.281250	-46.466900
3864.257812	-46.146561
3865.234375	-46.702648
3866.210938	-47.182392
3867.187500	-46.834522
3868.164062	-46.471382
3869.140625	-46.860386
3870.117188	-46.867016
3871.093750	-47.997692
3872.070312	-46.949947
3873.046875	-47.469219
3874.023438	-47.242962
3875.000000	-46.989223
3875.976562	-46.825432
3876.953125	-46.683064
3877.929688	-46.856953
3878.906250	-47.163357
3879.882812	-46.435947
3880.859375	-46.755669
3881.835938	-46.798302
3882.812500	-47.430477
3883.789062	-46.795475
3884.765625	-46.847855
3885.742188	-47.280281
3886.718750	-46.497326
3887.695312	-45.916618
3888.671875	-46.633385
3889.648438	-47.247643
3890.625000	-46.749172
3891.601562	-47.131386
3892.578125	-46.623089
3893.554688	-46.264050
3894.531250	-47.222027
3895.507812	-46.246578
3896.484375	-46.532867
3897.460938	-46.731903
3898.437500	-46.249451
3899.414062	-46.773441
3900.390625	-47.133717
3901.367188	-46.412601
3902.343750	-46.341022
3903.320312	-46.705158
3904.296875	-47.712818
3905.273438	-47.600060
3906.250000	-46.755978
3907.226562	-47.169350
3908.203125	-46.703438
3909.179688	-46.844551
3910.156250	-46.645729
3911.132812	-46.632229
3912.109375	-46.776539
3913.085938	-46.971333
3914.062500	-47.257988
3915.039062	-46.790279
3916.015625	-47.470928
3916.992188	-47.070919
3917.968750	-46.981308
3918.945312	-47.071869
3919.921875	-47.970287
3920.898438	-47.657158
3921.875000	-46.559303
3922.851562	-46.295975
3923.828125	-46.563046
3924.804688	-46.956654
3925.781250	-46.661213
3926.757812	-46.793720
3927.734375	-46.467331
3928.710938	-47.012009
3929.687500	-46.727444
3930.664062	-46.395042
3931.640625	-47.457466
3932.617188	-46.848686
3933.593750	-47.321743
3934.570312	-47.371956
3935.546875	-46.489994
3936.523438	-48.158688
3937.500000	-46.764984
3938.476562	-46.730267
3939.453125	-47.037926
3940.429688	-47.023129
3941.406250	-46.997711
3942.382812	-46.868145
3943.359375	-46.670700
3944.335938	-47.281971
3945.312500	-46.401421
3946.289062	-46.477009
3947.265625	-46.695030
3948.242188	-47.024418
3949.218750	-46.973141
3950.195312	-46.398792
3951.171875	-47.290287
3952.148438	-47.537590
3953.125000	-46.890453
3954.101562	-46.667656
3955.078125	-46.282356
3956.054688	-47.399357
3957.031250	-47.060513
3958.007812	-46.112438
3958.984375	-46.408295
3959.960938	-46.874340
3960.937500	-47.469429
3961.914062	-46.793987
3962.890625	-47.094276
3963.867188	-47.184547
3964.843750	-47.437374
3965.820312	-47.072544
3966.796875	-47.745064
3967.773438	-47.183853
3968.750000	-47.197723
3969.726562	-47.122452
3970.703125	-46.634293
3971.679688	-47.483242
3972.656250	-47.476929
3973.632812	-46.710300
3974.609375	-46.835209
3975.585938	-46.898071
3976.562500	-46.826488
3977.539062	-47.344276
3978.515625	-47.769665
3979.492188	-46.842548
3980.468750	-45.985287
3981.445312	-46.935005
3982.421875	-47.193176
3983.398438	-46.147526
3984.375000	-46.752144
3985.351562	-46.958744
3986.328125	-46.657055
3987.304688	-47.308895
3988.281250	-47.066143
3989.257812	-46.347267
3990.234375	-47.169403
3991.210938	-46.605900
3992.187500	-47.520031
3993.164062	-46.735580
3994.140625	-47.019375
3995.117188	-46.866623
3996.093750	-47.063732
3997.070312	-46.490269
3998.046875	-46.693703
3999.023438	-46.820015
4000.000000	-47.540089
4000.976562	-47.358070
4001.953125	-46.624725
4002.929688	-46.902084
4003.906250	-47.121265
4004.882812	-46.866039
4005.859375	-46.787296
4006.835938	-47.104729
4007.812500	-47.199131
4008.789062	-47.259312
4009.765625	-47.352882
4010.742188	-46.215210
4011.718750	-47.445190
4012.695312	-46.652718
4013.671875	-47.143112
4014.648438	-47.211067
4015.625000	-47.226814
4016.601562	-47.152271
4017.578125	-46.253876
4018.554688	-47.139984
4019.531250	-47.653591
4020.507812	-46.987038
4021.484375	-46.752289
4022.460938	-46.507538
4023.437500	-47.088036
4024.414062	-47.156982
4025.390625	-47.098576
4026.367188	-46.908264
4027.343750	-47.530621
4028.320312	-47.244438
4029.296875	-47.122818
4030.273438	-47.179283
4031.250000	-46.842186
4032.226562	-46.618240
4033.203125	-46.858006
4034.179688	-47.102119
4035.156250	-46.710667
4036.132812	-46.673515
4037.109375	-45.982391
4038.085938	-47.169769
4039.062500	-47.307278
4040.039062	-47.802605
4041.015625	-46.619354
4041.992188	-47.742580
4042.968750	-47.031334
4043.945312	-47.211304
4044.921875	-46.439499
4045.898438	-47.357727
4046.875000	-46.869678
4047.851562	-46.620670
4048.828125	-47.427223
4049.804688	-46.799286
4050.781250	-46.945396
4051.757812	-47.228165
4052.734375	-47.483948
4053.710938	-46.897297
4054.687500	-46.714626
4055.664062	-46.633503
4056.640625	-46.708900
4057.617188	-47.029350
4058.593750	-46.975292
4059.570312	-47.190754
4060.546875	-46.311794
4061.523438	-46.969254
4062.500000	-46.384933
4063.476562	-46.876549
4064.453125	-46.643421
4065.429688	-46.808838
4066.406250	-46.297642
4067.382812	-47.344360
4068.359375	-46.281643
4069.335938	-47.227844
4070.312500	-47.022476
4071.289062	-46.942982
4072.265625	-46.606838
4073.242188	-46.956249
4074.218750	-47.309422
4075.195312	-46.422367
4076.171875	-46.556328
4077.148438	-47.119217
4078.125000	-48.184238
4079.101562	-47.391052
4080.078125	-46.477192
4081.054688	-46.963387
4082.031250	-46.673782
4083.007812	-46.157757
4083.984375	-46.989628
4084.960938	-46.751942
4085.937500	-46.404243
4086.914062	-47.528938
4087.890625	-46.945396
4088.867188	-46.811871
4089.843750	-47.264900
4090.820312	-46.624741
4091.796875	-46.174835
4092.773438	-46.506027
4093.750000	-47.382828
4094.726562	-46.313072
4095.703125	-46.760662
4096.679688	-47.137436
4097.656250	-46.750786
4098.632812	-46.948929
4099.609375	-47.124123
4100.585938	-47.596375
4101.562500	-47.375351
4102.539062	-46.597645
4103.515625	-46.352104
4104.492188	-46.743668
4105.468750	-47.427185
4106.445312	-47.443642
4107.421875	-46.614723
4108.398438	-46.789768
4109.375000	-46.797829
4110.351562	-47.047337
4111.328125	-46.878300
4112.304688	-47.329041
4113.281250	-47.322018
4114.257812	-46.968910
4115.234375	-46.908199
4116.210938	-46.643913
4117.187500	-47.197281
4118.164062	-46.947758
4119.140625	-46.406113
4120.117188	-47.466335
4121.093750	-46.617249
4122.070312	-47.513393
4123.046875	-46.925304
4124.023438	-46.654667
4125.000000	-47.054123
4125.976562	-46.775005
4126.953125	-47.394806
4127.929688	-47.086380
4128.906250	-47.142956
4129.882812	-47.424648
4130.859375	-46.971230
4131.835938	-46.141903
4132.812500	-47.054813
4133.789062	-46.826782
4134.765625	-47.631432
4135.742188	-47.142658
4136.718750	-47.141766
4137.695312	-47.150658
4138.671875	-46.789627
4139.648438	-46.642128
4140.625000	-46.481907
4141.601562	-46.590023
4142.578125	-46.723167
4143.554688	-47.089119
4144.531250	-46.829571
4145.507812	-46.259529
4146.484375	-46.861431
4147.460938	-47.101505
4148.437500	-46.532269
4149.414062	-47.223866
4150.390625	-47.590004
4151.367188	-46.638027
4152.343750	-47.542946
4153.320312	-47.675640
4154.296875	-46.736217
4155.273438	-46.980732
4156.250000	-47.420223
4157.226562	-47.008327
4158.203125	-46.028763
4159.179688	-46.317894
4160.156250	-46.901089
4161.132812	-46.727642
4162.109375	-46.843033
4163.085938	-47.282021
4164.062500	-46.633720
4165.039062	-46.517693
4166.015625	-46.378319
4166.992188	-47.165321
4167.968750	-46.285339
4168.945312	-46.739063
4169.921875	-46.756058
4170.898438	-46.384350
4171.875000	-46.321507
4172.851562	-46.938927
4173.828125	-46.899635
4174.804688	-47.225891
4175.781250	-47.004116
4176.757812	-47.026577
4177.734375	-46.682652
4178.710938	-46.845139
4179.687500	-46.780041
4180.664062	-46.668766
4181.640625	-46.509739
4182.617188	-47.042015
4183.593750	-47.012001
4184.570312	-47.244873
4185.546875	-47.350464
4186.523438	-47.148598
4187.500000	-47.279022
4188.476562	-46.834778
4189.453125	-46.653492
4190.429688	-47.774876
4191.406250	-46.647278
4192.382812	-46.704029
4193.359375	-46.295265
4194.335938	-47.189007
4195.312500	-46.847923
4196.289062	-47.019867
4197.265625	-47.208401
4198.242188	-47.105698
4199.218750	-46.963398
4200.195312	-46.992634
4201.171875	-46.562870
4202.148438	-47.056805
4203.125000	-47.160305
4204.101562	-46.909969
4205.078125	-47.120205
4206.054688	-46.585377
4207.031250	-46.731655
4208.007812	-47.447372
4208.984375	-47.181599
4209.960938	-47.058701
4210.937500	-46.901489
4211.914062	-46.774189
4212.890625	-47.117584
4213.867188	-46.318905
4214.843750	-46.826160
4215.820312	-46.348324
4216.796875	-46.990517
4217.773438	-46.109642
4218.750000	-47.262772
4219.726562	-46.992588
4220.703125	-46.626793
4221.679688	-47.078503
4222.656250	-47.630180
4223.632812	-47.632195
4224.609375	-47.130489
4225.585938	-47.193413
4226.562500	-47.194279
4227.539062	-46.680325
4228.515625	-47.143795
4229.492188	-46.825871
4230.468750	-46.324837
4231.445312	-46.443939
4232.421875	-46.986610
4233.398438	-47.097580
4234.375000	-46.995342
4235.351562	-46.618179
4236.328125	-46.771301
4237.304688	-47.209297
4238.281250	-47.598301
4239.257812	-46.930595
4240.234375	-47.552017
4241.210938	-47.181129
4242.187500	-46.829922
4243.164062	-46.630276
4244.140625	-46.075832
4245.117188	-46.360146
4246.093750	-47.129116
4247.070312	-47.245899
4248.046875	-47.130260
4249.023438	-46.515820
4250.000000	-46.730659
4250.976562	-47.048054
4251.953125	-46.594990
4252.929688	-46.725510
4253.906250	-47.713512
4254.882812	-46.478836
4255.859375	-46.053478
4256.835938	-46.948410
4257.812500	-47.168198
4258.789062	-47.450008
4259.765625	-46.722488
4260.742188	-46.581882
4261.718750	-47.109879
4262.695312	-47.665592
4263.671875	-47.308250
4264.648438	-46.831997
4265.625000	-47.054928
4266.601562	-46.978958
4267.578125	-47.186062
4268.554688	-47.463268
4269.531250	-47.935726
4270.507812	-46.449913
4271.484375	-46.632874
4272.460938	-46.761253
4273.437500	-46.363632
4274.414062	-47.337448
4275.390625	-47.594826
4276.367188	-47.041176
4277.343750	-46.691097
4278.320312	-46.243973
4279.296875	-47.080929
4280.273438	-47.010670
4281.250000	-46.434425
4282.226562	-46.762630
4283.203125	-46.973370
4284.179688	-47.237206
4285.156250	-47.167160
4286.132812	-46.498211
4287.109375	-47.792549
4288.085938	-47.171768
4289.062500	-46.974110
4290.039062	-46.734364
4291.015625	-45.492920
4291.992188	-47.188156
4292.968750	-47.174007
4293.945312	-46.738010
4294.921875	-46.707825
4295.898438	-46.987938
4296.875000	-46.552025
4297.851562	-47.536007
4298.828125	-47.283573
4299.804688	-46.509167
4300.781250	-46.846905
4301.757812	-47.402328
4302.734375	-46.957775
4303.710938	-46.674557
4304.687500	-47.081593
4305.664062	-47.515526
4306.640625	-47.206497
4307.617188	-46.361988
4308.593750	-47.076218
4309.570312	-46.983200
4310.546875	-46.848946
4311.523438	-47.470097
4312.500000	-47.421070
4313.476562	-47.174377
4314.453125	-46.593166
4315.429688	-47.146240
4316.406250	-47.488247
4317.382812	-47.283443
4318.359375	-46.760994
4319.335938	-46.909164
4320.312500	-47.770832
4321.289062	-47.727116
4322.265625	-47.219208
4323.242188	-47.214241
4324.218750	-46.711864
4325.195312	-46.436981
4326.171875	-47.430588
4327.148438	-47.081482
4328.125000	-47.656292
4329.101562	-47.336975
4330.078125	-46.926563
4331.054688	-46.782715
4332.031250	-47.415134
4333.007812	-46.217514
4333.984375	-47.222057
4334.960938	-47.125839
4335.937500	-46.688904
4336.914062	-46.405533
4337.890625	-46.882011
4338.867188	-47.004650
4339.843750	-46.872200
4340.820312	-46.465687
4341.796875	-46.537155
4342.773438	-47.380928
4343.750000	-47.074318
4344.726562	-47.181103
4345.703125	-47.120514
4346.679688	-47.052288
4347.656250	-47.272148
4348.632812	-46.599552
4349.609375	-46.906944
4350.585938	-47.105515
4351.562500	-46.478867
4352.539062	-47.062855
4353.515625	-46.741062
4354.492188	-47.354359
4355.468750	-46.605652
4356.445312	-47.095184
4357.421875	-47.094597
4358.398438	-46.359646
4359.375000	-47.066551
4360.351562	-47.033581
4361.328125	-46.506638
4362.304688	-47.510216
4363.281250	-47.969238
4364.257812	-46.672169
4365.234375	-47.032307
4366.210938	-47.992496
4367.187500	-47.020924
4368.164062	-46.487240
4369.140625	-46.301014
4370.117188	-47.254509
4371.093750	-47.506947
4372.070312	-46.411125
4373.046875	-47.939007
4374.023438	-46.801933
4375.000000	-47.140163
4375.976562	-46.809235
4376.953125	-46.716209
4377.929688	-47.377052
4378.906250	-47.508785
4379.882812	-47.390545
4380.859375	-46.430962
4381.835938	-46.747890
4382.812500	-47.896976
4383.789062	-46.053688
4384.765625	-46.212418
4385.742188	-47.267658
4386.718750	-47.044895
4387.695312	-46.480556
4388.671875	-46.660942
4389.648438	-47.159332
4390.625000	-47.680943
4391.601562	-46.541424
4392.578125	-46.767353
4393.554688	-47.166187
4394.531250	-46.514366
4395.507812	-47.572495
4396.484375	-46.644043
4397.460938	-47.045422
4398.437500	-46.767654
4399.414062	-46.433819
4400.390625	-47.316116
4401.367188	-46.747864
4402.343750	-46.685665
4403.320312	-47.331554
4404.296875	-46.897827
4405.273438	-47.670887
4406.250000	-47.593151
4407.226562	-47.061310
4408.203125	-47.569653
4409.179688	-46.611389
4410.156250	-47.005394
4411.132812	-47.667789
4412.109375	-47.130585
4413.085938	-46.493061
4414.062500	-46.787983
4415.039062	-47.064575
4416.015625	-46.893497
4416.992188	-46.708927
4417.968750	-46.986122
4418.945312	-47.221756
4419.921875	-46.748314
4420.898438	-47.343067
4421.875000	-46.034031
4422.851562	-47.272186
4423.828125	-47.159019
4424.804688	-46.441471
4425.781250	-47.526424
4426.757812	-47.382343
4427.734375	-47.057087
4428.710938	-46.967270
4429.687500	-46.619961
4430.664062	-46.890347
4431.640625	-47.441555
4432.617188	-47.259426
4433.593750	-46.726810
4434.570312	-46.745525
4435.546875	-47.063732
4436.523438	-47.064331
4437.500000	-46.745667
4438.476562	-46.568436
4439.453125	-47.577492
4440.429688	-47.623795
4441.406250	-47.086086
4442.382812	-46.945026
4443.359375	-46.289272
4444.335938	-45.897907
4445.312500	-46.636436
4446.289062	-46.497540
4447.265625	-46.433716
4448.242188	-47.071381
4449.218750	-47.456512
4450.195312	-46.349106
4451.171875	-46.631493
4452.148438	-47.809864
4453.125000	-46.085083
4454.101562	-46.316326
4455.078125	-47.440151
4456.054688	-46.762722
4457.031250	-46.266315
4458.007812	-47.346798
4458.984375	-46.955681
4459.960938	-47.244244
4460.937500	-47.007133
4461.914062	-47.287331
4462.890625	-46.995087
4463.867188	-47.055962
4464.843750	-46.745872
4465.820312	-46.944424
4466.796875	-46.174862
4467.773438	-46.261505
4468.750000	-46.269772
4469.726562	-46.232494
4470.703125	-46.682995
4471.679688	-46.894520
4472.656250	-47.044865
4473.632812	-46.874416
4474.609375	-46.357044
4475.585938	-45.925308
4476.562500	-47.348347
4477.539062	-47.428413
4478.515625	-46.841896
4479.492188	-47.177631
4480.468750	-46.513756
4481.445312	-46.688053
4482.421875	-47.700405
4483.398438	-46.654858
4484.375000	-47.565144
4485.351562	-46.962662
4486.328125	-46.385429
4487.304688	-47.574562
4488.281250	-47.168617
4489.257812	-47.429726
4490.234375	-47.432919
4491.210938	-46.452503
4492.187500	-47.032707
4493.164062	-46.794575
4494.140625	-46.982689
4495.117188	-46.976860
4496.093750	-46.858643
4497.070312	-47.062107
4498.046875	-46.748055
4499.023438	-47.597153
4500.000000	-46.673531
4500.976562	-46.936924
4501.953125	-46.753429
4502.929688	-46.193256
4503.906250	-45.504082
4504.882812	-47.056133
4505.859375	-47.073166
4506.835938	-47.288513
4507.812500	-46.542370
4508.789062	-46.283871
4509.765625	-46.439373
4510.742188	-46.939552
4511.718750	-46.673889
4512.695312	-47.036873
4513.671875	-47.205341
4514.648438	-46.519455
4515.625000	-46.840321
4516.601562	-47.351646
4517.578125	-47.062325
4518.554688	-47.191162
4519.531250	-47.173405
4520.507812	-46.825577
4521.484375	-46.093555
4522.460938	-46.141258
4523.437500	-45.932217
4524.414062	-46.584278
4525.390625	-46.655998
4526.367188	-47.271759
4527.343750	-46.855049
4528.320312	-46.657265
4529.296875	-46.582077
4530.273438	-47.383499
4531.250000	-47.214230
4532.226562	-47.344528
4533.203125	-46.544781
4534.179688	-46.928902
4535.156250	-47.032589
4536.132812	-46.472664
4537.109375	-46.872768
4538.085938	-46.924332
4539.062500	-47.147255
4540.039062	-46.674545
4541.015625	-46.797417
4541.992188	-47.546162
4542.968750	-46.064602
4543.945312	-46.809914
4544.921875	-46.442585
4545.898438	-46.981041
4546.875000	-47.275169
4547.851562	-46.618740
4548.828125	-46.989727
4549.804688	-47.236080
4550.781250	-46.843903
4551.757812	-46.688446
4552.734375	-46.598152
4553.710938	-48.138802
4554.687500	-46.841297
4555.664062	-46.360279
4556.640625	-46.128967
4557.617188	-46.439865
4558.593750	-46.411327
4559.570312	-46.719612
4560.546875	-46.956810
4561.523438	-47.061466
4562.500000	-47.897308
4563.476562	-47.370625
4564.453125	-47.092762
4565.429688	-47.117119
4566.406250	-47.068611
4567.382812	-46.672253
4568.359375	-47.411026
4569.335938	-47.992794
4570.312500	-47.351318
4571.289062	-46.384270
4572.265625	-47.476048
4573.242188	-46.590954
4574.218750	-46.505993
4575.195312	-46.761597
4576.171875	-47.058212
4577.148438	-46.486900
4578.125000	-47.219711
4579.101562	-47.066280
4580.078125	-46.856266
4581.054688	-46.371090
4582.031250	-46.829128
4583.007812	-46.966915
4583.984375	-46.337330
4584.960938	-46.554276
4585.937500	-47.227383
4586.914062	-46.965202
4587.890625	-47.131298
4588.867188	-47.402824
4589.843750	-46.853958
4590.820312	-46.985561
4591.796875	-47.507816
4592.773438	-47.175808
4593.750000	-47.107471
4594.726562	-47.755882
4595.703125	-46.465591
4596.679688	-47.077301
4597.656250	-46.753632
4598.632812	-47.531036
4599.609375	-47.394775
4600.585938	-46.448463
4601.562500	-46.609406
4602.539062	-47.561516
4603.515625	-46.686237
4604.492188	-46.813354
4605.468750	-46.458454
4606.445312	-46.246689
4607.421875	-47.057648
4608.398438	-46.787857
4609.375000	-46.616089
4610.351562	-47.175907
4611.328125	-46.353279
4612.304688	-46.868614
4613.281250	-47.082333
4614.257812	-47.118645
4615.234375	-46.536369
4616.210938	-47.504993
4617.187500	-46.327648
4618.164062	-47.064285
4619.140625	-46.787853
4620.117188	-46.341709
4621.093750	-47.182487
4622.070312	-46.711399
4623.046875	-46.318066
4624.023438	-47.373821
4625.000000	-46.838001
4625.976562	-46.367241
4626.953125	-47.483177
4627.929688	-47.221558
4628.906250	-46.862476
4629.882812	-47.297356
4630.859375	-47.003819
4631.835938	-46.447693
4632.812500	-46.882679
4633.789062	-47.783127
4634.765625	-46.837410
4635.742188	-46.736496
4636.718750	-47.203400
4637.695312	-46.832195
4638.671875	-46.856041
4639.648438	-48.002106
4640.625000	-47.278111
4641.601562	-46.593128
4642.578125	-47.029694
4643.554688	-47.152702
4644.531250	-46.867348
4645.507812	-47.609413
4646.484375	-46.549770
4647.460938	-46.605797
4648.437500	-48.038422
4649.414062	-47.558254
4650.390625	-47.337727
4651.367188	-47.206280
4652.343750	-47.120853
4653.320312	-46.929066
4654.296875	-46.197418
4655.273438	-47.053989
4656.250000	-46.645779
4657.226562	-46.176834
4658.203125	-46.848568
4659.179688	-46.711941
4660.156250	-47.206585
4661.132812	-46.597679
4662.109375	-47.159550
4663.085938	-47.197525
4664.062500	-47.576923
4665.039062	-47.752403
4666.015625	-46.899334
4666.992188	-46.567947
4667.968750	-46.922737
4668.945312	-46.409595
4669.921875	-46.872322
4670.898438	-47.124149
4671.875000	-47.773979
4672.851562	-47.155067
4673.828125	-46.364712
4674.804688	-46.737522
4675.781250	-46.674290
4676.757812	-46.996178
4677.734375	-46.965839
4678.710938	-46.645390
4679.687500	-46.130695
4680.664062	-46.527664
4681.640625	-47.231701
4682.617188	-46.984661
4683.593750	-47.180553
4684.570312	-47.274170
4685.546875	-46.653797
4686.523438	-47.313046
4687.500000	-47.320290
4688.476562	-46.736664
4689.453125	-47.077671
4690.429688	-46.888809
4691.406250	-47.009441
4692.382812	-46.194626
4693.359375	-47.484142
4694.335938	-47.300892
4695.312500	-47.523239
4696.289062	-47.502495
4697.265625	-47.072369
4698.242188	-46.712254
4699.218750	-46.710217
4700.195312	-46.922218
4701.171875	-46.601635
4702.148438	-47.312840
4703.125000	-46.932991
4704.101562	-46.394711
4705.078125	-46.426003
4706.054688	-46.553955
4707.031250	-46.813644
4708.007812	-46.320766
4708.984375	-46.641197
4709.960938	-47.343403
4710.937500	-46.990120
4711.914062	-47.017689
4712.890625	-47.201866
4713.867188	-47.340691
4714.843750	-46.646900
4715.820312	-46.470806
4716.796875	-47.039196
4717.773438	-45.955891
4718.750000	-46.645954
4719.726562	-47.180943
4720.703125	-47.835434
4721.679688	-47.583721
4722.656250	-47.441315
4723.632812	-47.568844
4724.609375	-47.425858
4725.585938	-46.941013
4726.562500	-46.241821
4727.539062	-46.678104
4728.515625	-47.232285
4729.492188	-46.435059
4730.468750	-46.293530
4731.445312	-46.339806
4732.421875	-46.457626
4733.398438	-46.651123
4734.375000	-47.051151
4735.351562	-46.727844
4736.328125	-47.473530
4737.304688	-47.269936
4738.281250	-47.105915
4739.257812	-46.663498
4740.234375	-47.266899
4741.210938	-46.912010
4742.187500	-46.757549
4743.164062	-46.698910
4744.140625	-46.890305
4745.117188	-46.875797
4746.093750	-46.383255
4747.070312	-46.984577
4748.046875	-47.472050
4749.023438	-47.591045
4750.000000	-46.671783
4750.976562	-46.660877
4751.953125	-46.776691
4752.929688	-46.840633
4753.906250	-46.919964
4754.882812	-47.882202
4755.859375	-47.113556
4756.835938	-46.521011
4757.812500	-47.225647
4758.789062	-46.490326
4759.765625	-46.251507
4760.742188	-47.456284
4761.718750	-47.974651
4762.695312	-47.266026
4763.671875	-47.019253
4764.648438	-47.440029
4765.625000	-47.375134
4766.601562	-46.815090
4767.578125	-46.285355
4768.554688	-46.895779
4769.531250	-47.266121
4770.507812	-46.236176
4771.484375	-46.934261
4772.460938	-47.303661
4773.437500	-47.168552
4774.414062	-47.109959
4775.390625	-47.544807
4776.367188	-46.658474
4777.343750	-46.741207
4778.320312	-46.493969
4779.296875	-46.894169
4780.273438	-46.799496
4781.250000	-47.233410
4782.226562	-46.758221
4783.203125	-46.043583
4784.179688	-46.897896
4785.156250	-46.753922
4786.132812	-46.093658
4787.109375	-47.191593
4788.085938	-46.315956
4789.062500	-47.264030
4790.039062	-47.021854
4791.015625	-46.801529
4791.992188	-46.575974
4792.968750	-46.824993
4793.945312	-47.429531
4794.921875	-47.400627
4795.898438	-46.577694
4796.875000	-47.476791
4797.851562	-47.363789
4798.828125	-46.613808
4799.804688	-47.012352
4800.781250	-46.819767
4801.757812	-46.669811
4802.734375	-46.106339
4803.710938	-47.819054
4804.687500	-47.031181
4805.664062	-47.238903
4806.640625	-46.715912
4807.617188	-46.781975
4808.593750	-47.236256
4809.570312	-47.129658
4810.546875	-46.893143
4811.523438	-46.849335
4812.500000	-46.455975
4813.476562	-47.018867
4814.453125	-46.655167
4815.429688	-45.971893
4816.406250	-47.032818
4817.382812	-47.200150
4818.359375	-47.728489
4819.335938	-46.739132
4820.312500	-46.419971
4821.289062	-47.551865
4822.265625	-46.933273
4823.242188	-47.945484
4824.218750	-46.923557
4825.195312	-47.106354
4826.171875	-47.981991
4827.148438	-46.475883
4828.125000	-46.921513
4829.101562	-47.214069
4830.078125	-46.753075
4831.054688	-46.990395
4832.031250	-46.978977
4833.007812	-47.895775
4833.984375	-46.918732
4834.960938	-47.461773
4835.937500	-46.736671
4836.914062	-46.437073
4837.890625	-47.191334
4838.867188	-46.843231
4839.843750	-46.904446
4840.820312	-47.810455
4841.796875	-47.328262
4842.773438	-46.781174
4843.750000	-46.594135
4844.726562	-46.553925
4845.703125	-46.654995
4846.679688	-47.536446
4847.656250	-47.204773
4848.632812	-46.942818
4849.609375	-47.355831
4850.585938	-46.451752
4851.562500	-46.419128
4852.539062	-46.846294
4853.515625	-47.176624
4854.492188	-47.067337
4855.468750	-47.028393
4856.445312	-47.769299
4857.421875	-47.109226
4858.398438	-47.176506
4859.375000	-45.901043
4860.351562	-46.830719
4861.328125	-46.789051
4862.304688	-45.902805
4863.281250	-46.931007
4864.257812	-46.518269
4865.234375	-46.937447
4866.210938	-46.962513
4867.187500	-46.978401
4868.164062	-46.806267
4869.140625	-47.420387
4870.117188	-46.847828
4871.093750	-47.455864
4872.070312	-46.501396
4873.046875	-46.622852
4874.023438	-46.943367
4875.000000	-46.686848
4875.976562	-46.860214
4876.953125	-46.607540
4877.929688	-46.501316
4878.906250	-46.523048
4879.882812	-46.478127
4880.859375	-47.147938
4881.835938	-47.904739
4882.812500	-48.108067
4883.789062	-46.715088
4884.765625	-47.541229
4885.742188	-47.663792
4886.718750	-46.523800
4887.695312	-47.148979
4888.671875	-46.676743
4889.648438	-46.511726
4890.625000	-46.769218
4891.601562	-47.310917
4892.578125	-47.330044
4893.554688	-46.848080
4894.531250	-46.940735
4895.507812	-47.523067
4896.484375	-47.323864
4897.460938	-47.293251
4898.437500	-46.781025
4899.414062	-46.898022
4900.390625	-46.979412
4901.367188	-46.923477
4902.343750	-46.827534
4903.320312	-47.820282
4904.296875	-47.183376
4905.273438	-46.363110
4906.250000	-46.062515
4907.226562	-47.167774
4908.203125	-46.706100
4909.179688	-46.813324
4910.156250	-46.598633
4911.132812	-47.623833
4912.109375	-46.689697
4913.085938	-46.615696
4914.062500	-46.988522
4915.039062	-47.074188
4916.015625	-46.977348
4916.992188	-47.991993
4917.968750	-47.885479
4918.945312	-47.035702
4919.921875	-47.013664
4920.898438	-46.567017
4921.875000	-46.246181
4922.851562	-46.914337
4923.828125	-46.988140
4924.804688	-46.095814
4925.781250	-46.553257
4926.757812	-46.896492
4927.734375	-46.893867
4928.710938	-46.807060
4929.687500	-47.151119
4930.664062	-46.793293
4931.640625	-47.290031
4932.617188	-47.525105
4933.593750	-46.524460
4934.570312	-46.545658
4935.546875	-47.109066
4936.523438	-46.863644
4937.500000	-47.331329
4938.476562	-46.809364
4939.453125	-46.031933
4940.429688	-47.100456
4941.406250	-47.952114
4942.382812	-47.297272
4943.359375	-47.303226
4944.335938	-46.827427
4945.312500	-47.103786
4946.289062	-46.697079
4947.265625	-46.776749
4948.242188	-46.997238
4949.218750	-46.783497
4950.195312	-46.994328
4951.171875	-47.339371
4952.148438	-46.775089
4953.125000	-47.064388
4954.101562	-47.140320
4955.078125	-46.910889
4956.054688	-46.675472
4957.031250	-46.425522
4958.007812	-47.135838
4958.984375	-46.533394
4959.960938	-46.753387
4960.937500	-45.991047
4961.914062	-46.798889
4962.890625	-47.165981
4963.867188	-47.003132
4964.843750	-46.641937
4965.820312	-47.590588
4966.796875	-46.518444
4967.773438	-46.857807
4968.750000	-47.040497
4969.726562	-47.032433
4970.703125	-46.660122
4971.679688	-47.074963
4972.656250	-46.026848
4973.632812	-46.872150
4974.609375	-47.104137
4975.585938	-46.738960
4976.562500	-46.276913
4977.539062	-46.946289
4978.515625	-47.170906
4979.492188	-47.089897
4980.468750	-47.519703
4981.445312	-46.505783
4982.421875	-47.369507
4983.398438	-47.036259
4984.375000	-46.596237
4985.351562	-47.454887
4986.328125	-47.609047
4987.304688	-47.011436
4988.281250	-46.691841
4989.257812	-46.904064
4990.234375	-46.906883
4991.210938	-46.495472
4992.187500	-47.162861
4993.164062	-47.567970
4994.140625	-46.713749
4995.117188	-46.609207
4996.093750	-47.192463
4997.070312	-47.274559
4998.046875	-47.642063
4999.023438	-46.933208
5000.000000	-46.819592
5000.976562	-45.897930
5001.953125	-45.790222
5002.929688	-46.550659
5003.906250	-47.257713
5004.882812	-47.158829
5005.859375	-46.028820
5006.835938	-46.785072
5007.812500	-46.457920
5008.789062	-47.344673
5009.765625	-47.353004
5010.742188	-46.527283
5011.718750	-46.331062
5012.695312	-47.440479
5013.671875	-47.351257
5014.648438	-47.609360
5015.625000	-46.642666
5016.601562	-46.738159
5017.578125	-46.651901
5018.554688	-46.972717
5019.531250	-47.065784
5020.507812	-46.886574
5021.484375	-46.472725
5022.460938	-47.298878
5023.437500	-46.708168
5024.414062	-46.670021
5025.390625	-47.054813
5026.367188	-47.749317
5027.343750	-46.621914
5028.320312	-46.531868
5029.296875	-47.005909
5030.273438	-46.562920
5031.250000	-47.188129
5032.226562	-47.054203
5033.203125	-47.556419
5034.179688	-47.167820
5035.156250	-47.083805
5036.132812	-46.936054
5037.109375	-47.127033
5038.085938	-46.952721
5039.062500	-46.530354
5040.039062	-46.976704
5041.015625	-46.711285
5041.992188	-47.669743
5042.968750	-47.633587
5043.945312	-46.919979
5044.921875	-46.485172
5045.898438	-46.292606
5046.875000	-47.749287
5047.851562	-47.092308
5048.828125	-47.904156
5049.804688	-47.202808
5050.781250	-46.815060
5051.757812	-47.015743
5052.734375	-47.076885
5053.710938	-46.786564
5054.687500	-46.870625
5055.664062	-46.714344
5056.640625	-46.873024
5057.617188	-47.699478
5058.593750	-46.959442
5059.570312	-47.058270
5060.546875	-46.497486
5061.523438	-47.243053
5062.500000	-46.503494
5063.476562	-47.380203
5064.453125	-47.749989
5065.429688	-46.957188
5066.406250	-47.361534
5067.382812	-46.376469
5068.359375	-46.351231
5069.335938	-46.806385
5070.312500	-46.606316
5071.289062	-46.440464
5072.265625	-46.844769
5073.242188	-47.188805
5074.218750	-46.709198
5075.195312	-46.515121
5076.171875	-46.787598
5077.148438	-47.444603
5078.125000	-46.048153
5079.101562	-47.089653
5080.078125	-46.388359
5081.054688	-46.904427
5082.031250	-46.661591
5083.007812	-47.184647
5083.984375	-46.689739
5084.960938	-46.598885
5085.937500	-47.302727
5086.914062	-46.709476
5087.890625	-46.639721
5088.867188	-46.877960
5089.843750	-47.155968
5090.820312	-47.109570
5091.796875	-46.882530
5092.773438	-47.304585
5093.750000	-47.071281
5094.726562	-47.795803
5095.703125	-47.151768
5096.679688	-47.353275
5097.656250	-47.503735
5098.632812	-46.947601
5099.609375	-46.432724
5100.585938	-46.954342
5101.562500	-46.956493
5102.539062	-46.630775
5103.515625	-46.403275
5104.492188	-46.689793
5105.468750	-46.246647
5106.445312	-47.542953
5107.421875	-46.883224
5108.398438	-47.706707
5109.375000	-47.895115
5110.351562	-47.329590
5111.328125	-46.411339
5112.304688	-47.353088
5113.281250	-46.829140
5114.257812	-46.792747
5115.234375	-47.353706
5116.210938	-45.784748
5117.187500	-46.733902
5118.164062	-46.687527
5119.140625	-46.975071
5120.117188	-46.459667
5121.093750	-47.147320
5122.070312	-47.133343
5123.046875	-46.112896
5124.023438	-46.932831
5125.000000	-46.717979
5125.976562	-46.829311
5126.953125	-46.118343
5127.929688	-46.949196
5128.906250	-46.551720
5129.882812	-47.028763
5130.859375	-47.619007
5131.835938	-46.752956
5132.812500	-47.193039
5133.789062	-47.364143
5134.765625	-47.320328
5135.742188	-47.049381
5136.718750	-47.143467
5137.695312	-46.394478
5138.671875	-46.608437
5139.648438	-46.291519
5140.625000	-46.936146
5141.601562	-46.771088
5142.578125	-46.752110
5143.554688	-46.558121
5144.531250	-46.508183
5145.507812	-47.630421
5146.484375	-46.904057
5147.460938	-46.833141
5148.437500	-47.320869
5149.414062	-47.829384
5150.390625	-47.515236
5151.367188	-47.299595
5152.343750	-46.710155
5153.320312	-46.305885
5154.296875	-46.583775
5155.273438	-46.751930
5156.250000	-46.414570
5157.226562	-46.576530
5158.203125	-46.405212
5159.179688	-46.307129
5160.156250	-47.869774
5161.132812	-47.045830
5162.109375	-46.916546
5163.085938	-47.041203
5164.062500	-46.666656
5165.039062	-47.466785
5166.015625	-46.796986
5166.992188	-46.926361
5167.968750	-47.014111
5168.945312	-47.097481
5169.921875	-47.317371
5170.898438	-47.085896
5171.875000	-46.648495
5172.851562	-46.604691
5173.828125	-47.102959
5174.804688	-46.639786
5175.781250	-46.840725
5176.757812	-47.528915
5177.734375	-46.501347
5178.710938	-46.853661
5179.687500	-47.715698
5180.664062	-47.549706
5181.640625	-47.597755
5182.617188	-46.905693
5183.593750	-46.762596
5184.570312	-46.592533
5185.546875	-47.644875
5186.523438	-47.395599
5187.500000	-47.034252
5188.476562	-46.933582
5189.453125	-46.175167
5190.429688	-47.659321
5191.406250	-46.147141
5192.382812	-45.961876
5193.359375	-46.088860
5194.335938	-46.087254
5195.312500	-46.674198
5196.289062	-46.553276
5197.265625	-47.209621
5198.242188	-47.025791
5199.218750	-46.703503
5200.195312	-46.868706
5201.171875	-46.199486
5202.148438	-47.421547
5203.125000	-46.400639
5204.101562	-46.747944
5205.078125	-46.258362
5206.054688	-46.448715
5207.031250	-46.854748
5208.007812	-47.106663
5208.984375	-47.035141
5209.960938	-46.802078
5210.937500	-46.537846
5211.914062	-46.479153
5212.890625	-47.109150
5213.867188	-46.934219
5214.843750	-47.131443
5215.820312	-46.530952
5216.796875	-47.214828
5217.773438	-46.704098
5218.750000	-46.574520
5219.726562	-46.506802
5220.703125	-46.175243
5221.679688	-46.618324
5222.656250	-47.506798
5223.632812	-46.430141
5224.609375	-46.221210
5225.585938	-47.090832
5226.562500	-46.840668
5227.539062	-46.252094
5228.515625	-46.237400
5229.492188	-46.597870
5230.468750	-47.329044
5231.445312	-47.122467
5232.421875	-46.267815
5233.398438	-47.277756
5234.375000	-47.205585
5235.351562	-47.027027
5236.328125	-47.694923
5237.304688	-47.154385
5238.281250	-47.578068
5239.257812	-47.751347
5240.234375	-46.881790
5241.210938	-46.988869
5242.187500	-47.016979
5243.164062	-47.225929
5244.140625	-47.335857
5245.117188	-47.074562
5246.093750	-46.726768
5247.070312	-46.560146
5248.046875	-46.495270
5249.023438	-47.030003
5250.000000	-46.697308
5250.976562	-47.004410
5251.953125	-47.153038
5252.929688	-46.627926
5253.906250	-46.475040
5254.882812	-47.100742
5255.859375	-46.734959
5256.835938	-46.306812
5257.812500	-47.399994
5258.789062	-46.899055
5259.765625	-46.294266
5260.742188	-46.655308
5261.718750	-47.162395
5262.695312	-47.204674
5263.671875	-46.881420
5264.648438	-46.620399
5265.625000	-48.159657
5266.601562	-46.313267
5267.578125	-46.906033
5268.554688	-47.389854
5269.531250	-47.192993
5270.507812	-45.866360
5271.484375	-47.034439
5272.460938	-47.625301
5273.437500	-46.572392
5274.414062	-46.101170
5275.390625	-46.772316
5276.367188	-46.766296
5277.343750	-46.683525
5278.320312	-46.655800
5279.296875	-46.928680
5280.273438	-47.478252
5281.250000	-46.978054
5282.226562	-47.150223
5283.203125	-46.862553
5284.179688	-47.934895
5285.156250	-47.005909
5286.132812	-46.681278
5287.109375	-47.605099
5288.085938	-47.275383
5289.062500	-46.722221
5290.039062	-47.121998
5291.015625	-47.372192
5291.992188	-46.201183
5292.968750	-46.252815
5293.945312	-46.523964
5294.921875	-46.646263
5295.898438	-46.837357
5296.875000	-46.459866
5297.851562	-46.830681
5298.828125	-47.369453
5299.804688	-45.810757
5300.781250	-45.545712
5301.757812	-46.554516
5302.734375	-46.251289
5303.710938	-46.658043
5304.687500	-46.751579
5305.664062	-47.180885
5306.640625	-46.760078
5307.617188	-46.984600
5308.593750	-46.585175
5309.570312	-46.498913
5310.546875	-46.843758
5311.523438	-46.700893
5312.500000	-46.350868
5313.476562	-47.324020
5314.453125	-47.164356
5315.429688	-46.566929
5316.406250	-47.596161
5317.382812	-47.353458
5318.359375	-46.693287
5319.335938	-46.843910
5320.312500	-46.902946
5321.289062	-46.542801
5322.265625	-46.625088
5323.242188	-46.400925
5324.218750	-46.652767
5325.195312	-47.522617
5326.171875	-46.629295
5327.148438	-47.331085
5328.125000	-46.803757
5329.101562	-46.897198
5330.078125	-47.015907
5331.054688	-46.272472
5332.031250	-47.076778
5333.007812	-47.697880
5333.984375	-46.741772
5334.960938	-47.455513
5335.937500	-47.318066
5336.914062	-47.080559
5337.890625	-46.193180
5338.867188	-47.243137
5339.843750	-47.114182
5340.820312	-46.271877
5341.796875	-46.999893
5342.773438	-46.410973
5343.750000	-47.096134
5344.726562	-47.037426
5345.703125	-47.398708
5346.679688	-47.520882
5347.656250	-46.848507
5348.632812	-46.373329
5349.609375	-47.236328
5350.585938	-46.643402
5351.562500	-46.662014
5352.539062	-46.813305
5353.515625	-47.002399
5354.492188	-46.394218
5355.468750	-47.369598
5356.445312	-47.253540
5357.421875	-47.435814
5358.398438	-47.060047
5359.375000	-47.267212
5360.351562	-46.718925
5361.328125	-46.873047
5362.304688	-46.382423
5363.281250	-46.685543
5364.257812	-46.678867
5365.234375	-47.343170
5366.210938	-47.173813
5367.187500	-47.100624
5368.164062	-47.266212
5369.140625	-47.511997
5370.117188	-46.912357
5371.093750	-46.427597
5372.070312	-47.250580
5373.046875	-47.513916
5374.023438	-46.572590
5375.000000	-47.479534
5375.976562	-46.606895
5376.953125	-46.965752
5377.929688	-46.340740
5378.906250	-47.247761
5379.882812	-46.363609
5380.859375	-47.243351
5381.835938	-46.923222
5382.812500	-46.267151
5383.789062	-46.764542
5384.765625	-47.370476
5385.742188	-46.402958
5386.718750	-47.256927
5387.695312	-46.828846
5388.671875	-46.155392
5389.648438	-46.523438
5390.625000	-46.665035
5391.601562	-47.354233
5392.578125	-47.469330
5393.554688	-47.393116
5394.531250	-47.516029
5395.507812	-47.097275
5396.484375	-46.497974
5397.460938	-47.204357
5398.437500	-46.396561
5399.414062	-46.648731
5400.390625	-46.757198
5401.367188	-47.022053
5402.343750	-47.082249
5403.320312	-47.181553
5404.296875	-47.594120
5405.273438	-46.689640
5406.250000	-47.449402
5407.226562	-47.195198
5408.203125	-46.362537
5409.179688	-46.505424
5410.156250	-46.796604
5411.132812	-46.586338
5412.109375	-47.003143
5413.085938	-47.337780
5414.062500	-46.493710
5415.039062	-46.441776
5416.015625	-47.307987
5416.992188	-47.110165
5417.968750	-47.326668
5418.945312	-46.994099
5419.921875	-47.190891
5420.898438	-46.932323
5421.875000	-46.740215
5422.851562	-46.543659
5423.828125	-46.484211
5424.804688	-47.671795
5425.781250	-46.901180
5426.757812	-46.652225
5427.734375	-47.093285
5428.710938	-46.855404
5429.687500	-47.021667
5430.664062	-47.548378
5431.640625	-46.904850
5432.617188	-47.041145
5433.593750	-47.298424
5434.570312	-47.410282
5435.546875	-47.237511
5436.523438	-46.776272
5437.500000	-46.707581
5438.476562	-46.853519
5439.453125	-47.012131
5440.429688	-46.771294
5441.406250	-46.805218
5442.382812	-46.770149
5443.359375	-47.532108
5444.335938	-46.700962
5445.312500	-46.259426
5446.289062	-46.610348
5447.265625	-46.531330
5448.242188	-46.334812
5449.218750	-46.389061
5450.195312	-46.741978
5451.171875	-47.158558
5452.148438	-47.662315
5453.125000	-45.943420
5454.101562	-47.180435
5455.078125	-47.151043
5456.054688	-46.874596
5457.031250	-46.897881
5458.007812	-47.172821
5458.984375	-48.463963
5459.960938	-47.489964
5460.937500	-46.768894
5461.914062	-47.067776
5462.890625	-47.122009
5463.867188	-46.701527
5464.843750	-46.508392
5465.820312	-47.205830
5466.796875	-46.700096
5467.773438	-46.994545
5468.750000	-47.223888
5469.726562	-46.964085
5470.703125	-46.997677
5471.679688	-47.638844
5472.656250	-46.766220
5473.632812	-47.528294
5474.609375	-46.816677
5475.585938	-46.884163
5476.562500	-46.605289
5477.539062	-47.105438
5478.515625	-46.526154
5479.492188	-46.869274
5480.468750	-47.074879
5481.445312	-47.057568
5482.421875	-46.614784
5483.398438	-47.083256
5484.375000	-46.891750
5485.351562	-47.043175
5486.328125	-46.289398
5487.304688	-47.206707
5488.281250	-46.345608
5489.257812	-47.075245
5490.234375	-47.085148
5491.210938	-46.811260
5492.187500	-46.703152
5493.164062	-46.842247
5494.140625	-47.052917
5495.117188	-46.868443
5496.093750	-47.102570
5497.070312	-46.426540
5498.046875	-46.660843
5499.023438	-46.464035
5500.000000	-47.018845
5500.976562	-46.991238
5501.953125	-47.624527
5502.929688	-47.067177
5503.906250	-47.176975
5504.882812	-47.175251
5505.859375	-47.113602
5506.835938	-47.859390
5507.812500	-46.648415
5508.789062	-46.800896
5509.765625	-46.778641
5510.742188	-46.568821
5511.718750	-46.796421
5512.695312	-47.363579
5513.671875	-46.801991
5514.648438	-46.731716
5515.625000	-46.684330
5516.601562	-47.366371
5517.578125	-47.005531
5518.554688	-47.488380
5519.531250	-46.977745
5520.507812	-46.003792
5521.484375	-46.478874
5522.460938	-47.212116
5523.437500	-46.912434
5524.414062	-47.108509
5525.390625	-47.863056
5526.367188	-47.674778
5527.343750	-46.507313
5528.320312	-46.667900
5529.296875	-46.928780
5530.273438	-46.939213
5531.250000	-46.920956
5532.226562	-47.127033
5533.203125	-47.076660
5534.179688	-46.326843
5535.156250	-47.252407
5536.132812	-46.928650
5537.109375	-46.885864
5538.085938	-46.936886
5539.062500	-47.606407
5540.039062	-47.394264
5541.015625	-46.986511
5541.992188	-46.942390
5542.968750	-47.041317
5543.945312	-45.817074
5544.921875	-46.478451
5545.898438	-47.297535
5546.875000	-47.267254
5547.851562	-47.856976
5548.828125	-46.846199
5549.804688	-46.846779
5550.781250	-46.924427
5551.757812	-46.931309
5552.734375	-47.121128
5553.710938	-47.436317
5554.687500	-47.458534
5555.664062	-46.529877
5556.640625	-46.296497
5557.617188	-45.879143
5558.593750	-46.789776
5559.570312	-47.111942
5560.546875	-46.588509
5561.523438	-46.540020
5562.500000	-46.868607
5563.476562	-46.781738
5564.453125	-48.340176
5565.429688	-46.829655
5566.406250	-46.727654
5567.382812	-46.951054
5568.359375	-46.806740
5569.335938	-46.686180
5570.312500	-46.841564
5571.289062	-46.500332
5572.265625	-47.347389
5573.242188	-46.210537
5574.218750	-46.798351
5575.195312	-47.120193
5576.171875	-47.318478
5577.148438	-46.229668
5578.125000	-46.980633
5579.101562	-47.349651
5580.078125	-47.101200
5581.054688	-46.694153
5582.031250	-46.570824
5583.007812	-46.398960
5583.984375	-47.278320
5584.960938	-46.526932
5585.937500	-46.600208
5586.914062	-46.830631
5587.890625	-46.445480
5588.867188	-46.177429
5589.843750	-46.833683
5590.820312	-46.695530
5591.796875	-47.272518
5592.773438	-47.495972
5593.750000	-46.657185
5594.726562	-47.316700
5595.703125	-46.302258
5596.679688	-46.773712
5597.656250	-46.723362
5598.632812	-47.151943
5599.609375	-47.149113
5600.585938	-47.871704
5601.562500	-47.441551
5602.539062	-46.166649
5603.515625	-47.152908
5604.492188	-46.466297
5605.468750	-46.951942
5606.445312	-46.062538
5607.421875	-46.995678
5608.398438	-46.915852
5609.375000	-47.643978
5610.351562	-47.018505
5611.328125	-47.157398
5612.304688	-46.554909
5613.281250	-46.706223
5614.257812	-46.888329
5615.234375	-46.029404
5616.210938	-47.384644
5617.187500	-47.262329
5618.164062	-46.484791
5619.140625	-47.303989
5620.117188	-46.793934
5621.093750	-46.748493
5622.070312	-47.078770
5623.046875	-46.665298
5624.023438	-46.667435
5625.000000	-46.761627
5625.976562	-47.291206
5626.953125	-47.734154
5627.929688	-46.632874
5628.906250	-47.164562
5629.882812	-46.436836
5630.859375	-46.109364
5631.835938	-46.861420
5632.812500	-47.046185
5633.789062	-47.658611
5634.765625	-47.398872
5635.742188	-47.057377
5636.718750	-47.063477
5637.695312	-46.737133
5638.671875	-46.641834
5639.648438	-47.768452
5640.625000	-46.572697
5641.601562	-46.754745
5642.578125	-47.176144
5643.554688	-47.281937
5644.531250	-48.272121
5645.507812	-47.781582
5646.484375	-46.879181
5647.460938	-47.113808
5648.437500	-46.587105
5649.414062	-47.172993
5650.390625	-46.784752
5651.367188	-46.975212
5652.343750	-46.630905
5653.320312	-46.442436
5654.296875	-46.838688
5655.273438	-47.187317
5656.250000	-45.915867
5657.226562	-46.606327
5658.203125	-47.217735
5659.179688	-46.553219
5660.156250	-46.899101
5661.132812	-47.169590
5662.109375	-47.170372
5663.085938	-46.825500
5664.062500	-47.232933
5665.039062	-46.866802
5666.015625	-47.657093
5666.992188	-46.713741
5667.968750	-46.839821
5668.945312	-46.337215
5669.921875	-46.592106
5670.898438	-46.829311
5671.875000	-46.894268
5672.851562	-46.995811
5673.828125	-46.731491
5674.804688	-47.072292
5675.781250	-47.068233
5676.757812	-46.885887
5677.734375	-46.713100
5678.710938	-46.759144
5679.687500	-47.279491
5680.664062	-46.669029
5681.640625	-46.581860
5682.617188	-47.092484
5683.593750	-47.085701
5684.570312	-46.507759
5685.546875	-47.119610
5686.523438	-46.714016
5687.500000	-46.964764
5688.476562	-46.532280
5689.453125	-46.704090
5690.429688	-47.573257
5691.406250	-47.163757
5692.382812	-46.760685
5693.359375	-47.182632
5694.335938	-47.453476
5695.312500	-46.995705
5696.289062	-47.469967
5697.265625	-46.803337
5698.242188	-46.711811
5699.218750	-46.058487
5700.195312	-47.464069
5701.171875	-47.272045
5702.148438	-47.468433
5703.125000	-47.217125
5704.101562	-46.833221
5705.078125	-46.229221
5706.054688	-46.483894
5707.031250	-46.199780
5708.007812	-46.534588
5708.984375	-46.852501
5709.960938	-46.604752
5710.937500	-47.410526
5711.914062	-47.711540
5712.890625	-47.389751
5713.867188	-47.390842
5714.843750	-47.612301
5715.820312	-47.458961
5716.796875	-46.698746
5717.773438	-47.098850
5718.750000	-46.607677
5719.726562	-45.856613
5720.703125	-45.881111
5721.679688	-46.734627
5722.656250	-47.586792
5723.632812	-47.104950
5724.609375	-46.972744
5725.585938	-48.198078
5726.562500	-46.888260
5727.539062	-47.136322
5728.515625	-46.612312
5729.492188	-46.736359
5730.468750	-46.679981
5731.445312	-46.802467
5732.421875	-46.705784
5733.398438	-47.744659
5734.375000	-47.182316
5735.351562	-46.974724
5736.328125	-47.615295
5737.304688	-47.018410
5738.281250	-46.907673
5739.257812	-46.588848
5740.234375	-47.346695
5741.210938	-46.795368
5742.187500	-46.379112
5743.164062	-47.481091
5744.140625	-46.619793
5745.117188	-46.792126
5746.093750	-47.015884
5747.070312	-46.875267
5748.046875	-46.822006
5749.023438	-47.227211
5750.000000	-46.028152
5750.976562	-47.078209
5751.953125	-46.776428
5752.929688	-47.154629
5753.906250	-47.421986
5754.882812	-46.718033
5755.859375	-47.067078
5756.835938	-47.215900
5757.812500	-47.004166
5758.789062	-46.926830
5759.765625	-47.967342
5760.742188	-46.348190
5761.718750	-47.832855
5762.695312	-47.407169
5763.671875	-47.586006
5764.648438	-47.097881
5765.625000	-46.656044
5766.601562	-46.842621
5767.578125	-47.107841
5768.554688	-46.770370
5769.531250	-47.199501
5770.507812	-47.138634
5771.484375	-46.752083
5772.460938	-47.054543
5773.437500	-47.311264
5774.414062	-47.226109
5775.390625	-47.036140
5776.367188	-46.255047
5777.343750	-46.478188
5778.320312	-46.873440
5779.296875	-47.231491
5780.273438	-46.302429
5781.250000	-46.244530
5782.226562	-46.754333
5783.203125	-47.187248
5784.179688	-47.009647
5785.156250	-47.287144
5786.132812	-46.985195
5787.109375	-46.749668
5788.085938	-46.304955
5789.062500	-47.007881
5790.039062	-47.150742
5791.015625	-47.294537
5791.992188	-46.919319
5792.968750	-47.343601
5793.945312	-47.464272
5794.921875	-46.950596
5795.898438	-47.056519
5796.875000	-47.369469
5797.851562	-47.165802
5798.828125	-47.640102
5799.804688	-47.465858
5800.781250	-47.282093
5801.757812	-46.375706
5802.734375	-46.332478
5803.710938	-46.592693
5804.687500	-47.258137
5805.664062	-46.811935
5806.640625	-47.353130
5807.617188	-46.136681
5808.593750	-45.780495
5809.570312	-46.436237
5810.546875	-46.681427
5811.523438	-46.473164
5812.500000	-47.269756
5813.476562	-47.214233
5814.453125	-46.537491
5815.429688	-46.522633
5816.406250	-47.289436
5817.382812	-47.295753
5818.359375	-46.966263
5819.335938	-47.103870
5820.312500	-47.556538
5821.289062	-47.370647
5822.265625	-47.598404
5823.242188	-46.995163
5824.218750	-46.514198
5825.195312	-46.532337
5826.171875	-47.081558
5827.148438	-47.139694
5828.125000	-47.135094
5829.101562	-47.275242
5830.078125	-46.748226
5831.054688	-46.354504
5832.031250	-46.851414
5833.007812	-47.280560
5833.984375	-47.261665
5834.960938	-47.338928
5835.937500	-46.865200
5836.914062	-47.131161
5837.890625	-47.345909
5838.867188	-46.920010
5839.843750	-46.990776
5840.820312	-46.999084
5841.796875	-46.531185
5842.773438	-46.100365
5843.750000	-46.965763
5844.726562	-47.226887
5845.703125	-47.260242
5846.679688	-46.723343
5847.656250	-46.980328
5848.632812	-47.472641
5849.609375	-46.520447
5850.585938	-46.701664
5851.562500	-46.340916
5852.539062	-46.145302
5853.515625	-46.366859
5854.492188	-46.695427
5855.468750	-46.368240
5856.445312	-47.098003
5857.421875	-47.324757
5858.398438	-46.989765
5859.375000	-46.416695
5860.351562	-47.409031
5861.328125	-46.583260
5862.304688	-47.266747
5863.281250	-47.439358
5864.257812	-47.135071
5865.234375	-47.887936
5866.210938	-46.988327
5867.187500	-46.658581
5868.164062	-46.980530
5869.140625	-46.891769
5870.117188	-46.408180
5871.093750	-46.875980
5872.070312	-46.962566
5873.046875	-46.964886
5874.023438	-47.027252
5875.000000	-46.677193
5875.976562	-46.616570
5876.953125	-46.679260
5877.929688	-47.663509
5878.906250	-46.697765
5879.882812	-46.797039
5880.859375	-46.654377
5881.835938	-47.063473
5882.812500	-47.050392
5883.789062	-47.074997
5884.765625	-47.406364
5885.742188	-47.540833
5886.718750	-47.019791
5887.695312	-47.125698
5888.671875	-46.020107
5889.648438	-46.750118
5890.625000	-47.074402
5891.601562	-46.867859
5892.578125	-45.901497
5893.554688	-47.264832
5894.531250	-46.941467
5895.507812	-46.531677
5896.484375	-46.889000
5897.460938	-47.065781
5898.437500	-47.850101
5899.414062	-46.706627
5900.390625	-47.751583
5901.367188	-47.437092
5902.343750	-47.840969
5903.320312	-46.918987
5904.296875	-46.325596
5905.273438	-47.145695
5906.250000	-47.952156
5907.226562	-47.239746
5908.203125	-46.989681
5909.179688	-47.035980
5910.156250	-47.391464
5911.132812	-46.638412
5912.109375	-47.025318
5913.085938	-47.388168
5914.062500	-46.391933
5915.039062	-46.823380
5916.015625	-46.555046
5916.992188	-46.547752
5917.968750	-46.904320
5918.945312	-46.899910
5919.921875	-47.613949
5920.898438	-47.030106
5921.875000	-46.852642
5922.851562	-46.873569
5923.828125	-46.601051
5924.804688	-46.676739
5925.781250	-47.551743
5926.757812	-46.726570
5927.734375	-47.109676
5928.710938	-46.983131
5929.687500	-46.929981
5930.664062	-47.278332
5931.640625	-48.023659
5932.617188	-47.608711
5933.593750	-47.046131
5934.570312	-46.475811
5935.546875	-46.506542
5936.523438	-46.324844
5937.500000	-46.913727
5938.476562	-46.238331
5939.453125	-46.126549
5940.429688	-46.475700
5941.406250	-47.247482
5942.382812	-46.779625
5943.359375	-47.262039
5944.335938	-46.906162
5945.312500	-46.951561
5946.289062	-46.749359
5947.265625	-46.997787
5948.242188	-46.180855
5949.218750	-47.361305
5950.195312	-46.644646
5951.171875	-46.693222
5952.148438	-46.490372
5953.125000	-46.864147
5954.101562	-46.616055
5955.078125	-46.276470
5956.054688	-46.878559
5957.031250	-46.509686
5958.007812	-48.291454
5958.984375	-47.377052
5959.960938	-47.602261
5960.937500	-47.232479
5961.914062	-46.865009
5962.890625	-47.369164
5963.867188	-46.808239
5964.843750	-46.765640
5965.820312	-47.609531
5966.796875	-46.889244
5967.773438	-47.540241
5968.750000	-46.682827
5969.726562	-45.956486
5970.703125	-47.344852
5971.679688	-46.935287
5972.656250	-46.633564
5973.632812	-46.995941
5974.609375	-47.062958
5975.585938	-46.504799
5976.562500	-47.207405
5977.539062	-46.586491
5978.515625	-47.096107
5979.492188	-46.717342
5980.468750	-46.771332
5981.445312	-47.430870
5982.421875	-46.911148
5983.398438	-46.369995
5984.375000	-46.652622
5985.351562	-46.606491
5986.328125	-46.421883
5987.304688	-46.782681
5988.281250	-46.913898
5989.257812	-46.144390
5990.234375	-46.022579
5991.210938	-46.619686
5992.187500	-47.567780
5993.164062	-46.742065
5994.140625	-46.725254
5995.117188	-46.522739
5996.093750	-46.033932
5997.070312	-46.595905
5998.046875	-47.273510
5999.023438	-47.278011
6000.000000	-47.440529
6000.976562	-47.207779
6001.953125	-46.618172
6002.929688	-47.451435
6003.906250	-46.897354
6004.882812	-47.563271
6005.859375	-46.457264
6006.835938	-46.917301
6007.812500	-46.867165
6008.789062	-46.647797
6009.765625	-46.862606
6010.742188	-46.797161
6011.718750	-47.008717
6012.695312	-46.751812
6013.671875	-47.133656
6014.648438	-46.654476
6015.625000	-46.856327
6016.601562	-47.028252
6017.578125	-46.636341
6018.554688	-46.518040
6019.531250	-46.560253
6020.507812	-46.882298
6021.484375	-46.721775
6022.460938	-46.712463
6023.437500	-47.273949
6024.414062	-46.954178
6025.390625	-47.081226
6026.367188	-46.755314
6027.343750	-46.920067
6028.320312	-46.700336
6029.296875	-47.043713
6030.273438	-47.525223
6031.250000	-47.476845
6032.226562	-47.008629
6033.203125	-47.037075
6034.179688	-47.778805
6035.156250	-45.616459
6036.132812	-46.986080
6037.109375	-47.911297
6038.085938	-47.244041
6039.062500	-47.293732
6040.039062	-46.833229
6041.015625	-47.350014
6041.992188	-47.228168
6042.968750	-47.630520
6043.945312	-47.458065
6044.921875	-47.312828
6045.898438	-46.861958
6046.875000	-46.937630
6047.851562	-47.027264
6048.828125	-46.917439
6049.804688	-45.976681
6050.781250	-46.779228
6051.757812	-47.509766
6052.734375	-47.396580
6053.710938	-46.692223
6054.687500	-47.000431
6055.664062	-46.909775
6056.640625	-46.586811
6057.617188	-46.459480
6058.593750	-46.976074
6059.570312	-46.527393
6060.546875	-47.426071
6061.523438	-46.992821
6062.500000	-47.126297
6063.476562	-47.149372
6064.453125	-46.936352
6065.429688	-47.647240
6066.406250	-47.110428
6067.382812	-46.739372
6068.359375	-46.417717
6069.335938	-46.488583
6070.312500	-47.083199
6071.289062	-47.697601
6072.265625	-47.321171
6073.242188	-46.912163
6074.218750	-46.676502
6075.195312	-47.321308
6076.171875	-47.769291
6077.148438	-47.390472
6078.125000	-47.570766
6079.101562	-47.270763
6080.078125	-46.994678
6081.054688	-46.982430
6082.031250	-47.691502
6083.007812	-47.462784
6083.984375	-47.151081
6084.960938	-47.206535
6085.937500	-47.739052
6086.914062	-47.234085
6087.890625	-47.481407
6088.867188	-46.697067
6089.843750	-46.781433
6090.820312	-47.281872
6091.796875	-46.749557
6092.773438	-46.017570
6093.750000	-46.711308
6094.726562	-46.503899
6095.703125	-46.962494
6096.679688	-47.179153
6097.656250	-46.554432
6098.632812	-46.751522
6099.609375	-46.504398
6100.585938	-46.256252
6101.562500	-46.468575
6102.539062	-46.845886
6103.515625	-46.132187
6104.492188	-46.911839
6105.468750	-47.011913
6106.445312	-46.129066
6107.421875	-46.698692
6108.398438	-47.158642
6109.375000	-47.539604
6110.351562	-47.325359
6111.328125	-46.725613
6112.304688	-46.848381
6113.281250	-46.518867
6114.257812	-47.045116
6115.234375	-46.694122
6116.210938	-47.945030
6117.187500	-46.931290
6118.164062	-46.370464
6119.140625	-47.003407
6120.117188	-46.685345
6121.093750	-46.798401
6122.070312	-46.849846
6123.046875	-47.152603
6124.023438	-47.401157
6125.000000	-46.071907
6125.976562	-47.125721
6126.953125	-47.407398
6127.929688	-47.500877
6128.906250	-47.456078
6129.882812	-46.798309
6130.859375	-46.863243
6131.835938	-46.695251
6132.812500	-46.981373
6133.789062	-46.994106
6134.765625	-47.287136
6135.742188	-47.085224
6136.718750	-46.833164
6137.695312	-47.314480
6138.671875	-47.292984
6139.648438	-47.290394
6140.625000	-47.561211
6141.601562	-47.141373
6142.578125	-46.901031
6143.554688	-46.805408
6144.531250	-46.533745
6145.507812	-46.432331
6146.484375	-46.594315
6147.460938	-47.139702
6148.437500	-46.862633
6149.414062	-47.173073
6150.390625	-47.133327
6151.367188	-46.221157
6152.343750	-46.269417
6153.320312	-46.495697
6154.296875	-45.598862
6155.273438	-46.861649
6156.250000	-47.438534
6157.226562	-47.485310
6158.203125	-46.832127
6159.179688	-47.145981
6160.156250	-46.383469
6161.132812	-47.563961
6162.109375	-46.328918
6163.085938	-46.615925
6164.062500	-46.845982
6165.039062	-47.339336
6166.015625	-46.384018
6166.992188	-46.706692
6167.968750	-46.675613
6168.945312	-46.997826
6169.921875	-46.693501
6170.898438	-47.065773
6171.875000	-46.915592
6172.851562	-46.736217
6173.828125	-46.732216
6174.804688	-46.205799
6175.781250	-46.706863
6176.757812	-46.505745
6177.734375	-47.489399
6178.710938	-46.475910
6179.687500	-46.177452
6180.664062	-47.041050
6181.640625	-47.570560
6182.617188	-47.114761
6183.593750	-48.321022
6184.570312	-46.501003
6185.546875	-46.141239
6186.523438	-47.408573
6187.500000	-47.328819
6188.476562	-46.874275
6189.453125	-47.227291
6190.429688	-46.552067
6191.406250	-46.851540
6192.382812	-47.964264
6193.359375	-46.513741
6194.335938	-46.473412
6195.312500	-46.589745
6196.289062	-47.366531
6197.265625	-47.358990
6198.242188	-46.806568
6199.218750	-47.362328
6200.195312	-46.810932
6201.171875	-46.300720
6202.148438	-45.895676
6203.125000	-46.304405
6204.101562	-45.907810
6205.078125	-47.327251
6206.054688	-47.856476
6207.031250	-46.878563
6208.007812	-46.865524
6208.984375	-47.259281
6209.960938	-46.660007
6210.937500	-47.374928
6211.914062	-46.948326
6212.890625	-47.101585
6213.867188	-46.964855
6214.843750	-46.811344
6215.820312	-46.258316
6216.796875	-46.766514
6217.773438	-47.247643
6218.750000	-46.777962
6219.726562	-46.807140
6220.703125	-46.632580
6221.679688	-47.104328
6222.656250	-46.474140
6223.632812	-46.900604
6224.609375	-47.171822
6225.585938	-46.215748
6226.562500	-47.294716
6227.539062	-47.434921
6228.515625	-46.353157
6229.492188	-46.794785
6230.468750	-46.722286
6231.445312	-46.744637
6232.421875	-47.192127
6233.398438	-46.119652
6234.375000	-47.215248
6235.351562	-46.993210
6236.328125	-47.582333
6237.304688	-47.082829
6238.281250	-47.643795
6239.257812	-47.094166
6240.234375	-46.513493
6241.210938	-46.712307
6242.187500	-46.646191
6243.164062	-46.809898
6244.140625	-46.649036
6245.117188	-46.759106
6246.093750	-47.327595
6247.070312	-46.255909
6248.046875	-46.414005
6249.023438	-46.732693
6250.000000	-46.860703
6250.976562	-46.937000
6251.953125	-46.815754
6252.929688	-47.114113
6253.906250	-46.057320
6254.882812	-46.871471
6255.859375	-47.625839
6256.835938	-47.195747
6257.812500	-47.291847
6258.789062	-47.069172
6259.765625	-46.754768
6260.742188	-47.356236
6261.718750	-47.664295
6262.695312	-47.775639
6263.671875	-47.189636
6264.648438	-47.268845
6265.625000	-46.708332
6266.601562	-46.933483
6267.578125	-47.423061
6268.554688	-46.994755
6269.531250	-46.843174
6270.507812	-47.137119
6271.484375	-46.636055
6272.460938	-47.302551
6273.437500	-47.441399
6274.414062	-46.155102
6275.390625	-47.097084
6276.367188	-46.183342
6277.343750	-47.038979
6278.320312	-46.841614
6279.296875	-46.731415
6280.273438	-47.134823
6281.250000	-46.743549
6282.226562	-46.056065
6283.203125	-46.936565
6284.179688	-47.168076
6285.156250	-46.874691
6286.132812	-46.637993
6287.109375	-46.923862
6288.085938	-47.233650
6289.062500	-47.639503
6290.039062	-47.386421
6291.015625	-46.740871
6291.992188	-47.239185
6292.968750	-47.255936
6293.945312	-47.109318
6294.921875	-46.334240
6295.898438	-47.031345
6296.875000	-46.348183
6297.851562	-46.889282
6298.828125	-47.516464
6299.804688	-47.281326
6300.781250	-46.703350
6301.757812	-46.492458
6302.734375	-46.446091
6303.710938	-47.287411
6304.687500	-47.360760
6305.664062	-46.747070
6306.640625	-46.758171
6307.617188	-47.368248
6308.593750	-46.675407
6309.570312	-46.733952
6310.546875	-46.632618
6311.523438	-46.822300
6312.500000	-47.908672
6313.476562	-47.163433
6314.453125	-46.612015
6315.429688	-46.275105
6316.406250	-46.427204
6317.382812	-46.998676
6318.359375	-46.834007
6319.335938	-46.800045
6320.312500	-47.161541
6321.289062	-46.801613
6322.265625	-46.809071
6323.242188	-47.269066
6324.218750	-46.758663
6325.195312	-46.820011
6326.171875	-46.968304
6327.148438	-47.002674
6328.125000	-46.602036
6329.101562	-47.220196
6330.078125	-46.957123
6331.054688	-48.130165
6332.031250	-46.607513
6333.007812	-46.597675
6333.984375	-47.170307
6334.960938	-46.173107
6335.937500	-47.015221
6336.914062	-47.325596
6337.890625	-47.068764
6338.867188	-47.069801
6339.843750	-46.229618
6340.820312	-46.803486
6341.796875	-46.647652
6342.773438	-47.167030
6343.750000	-47.380150
6344.726562	-47.385078
6345.703125	-47.673767
6346.679688	-47.216045
6347.656250	-46.321262
6348.632812	-46.438534
6349.609375	-46.406437
6350.585938	-46.869453
6351.562500	-48.029034
6352.539062	-47.404041
6353.515625	-47.330853
6354.492188	-46.895149
6355.468750	-47.587105
6356.445312	-46.394043
6357.421875	-46.581421
6358.398438	-47.046101
6359.375000	-47.539650
6360.351562	-46.481152
6361.328125	-46.126614
6362.304688	-47.015068
6363.281250	-47.093033
6364.257812	-46.559483
6365.234375	-46.959576
6366.210938	-47.204979
6367.187500	-46.660786
6368.164062	-46.634304
6369.140625	-47.076046
6370.117188	-47.701584
6371.093750	-47.075237
6372.070312	-46.660999
6373.046875	-46.574589
6374.023438	-47.105789
6375.000000	-46.953556
6375.976562	-46.931889
6376.953125	-46.958412
6377.929688	-46.611393
6378.906250	-46.889557
6379.882812	-46.188183
6380.859375	-46.695477
6381.835938	-46.594181
6382.812500	-47.061710
6383.789062	-47.341797
6384.765625	-48.242012
6385.742188	-47.285225
6386.718750	-46.504536
6387.695312	-46.820625
6388.671875	-46.859314
6389.648438	-47.337894
6390.625000	-46.968117
6391.601562	-47.276783
6392.578125	-47.094765
6393.554688	-46.529552
6394.531250	-46.797520
6395.507812	-46.349518
6396.484375	-47.047192
6397.460938	-47.154045
6398.437500	-46.972813
6399.414062	-47.108040
6400.390625	-45.898220
6401.367188	-47.428307
6402.343750	-46.684364
6403.320312	-46.813866
6404.296875	-46.971203
6405.273438	-46.333858
6406.250000	-47.108910
6407.226562	-46.467548
6408.203125	-47.383781
6409.179688	-46.601276
6410.156250	-47.001122
6411.132812	-46.562656
6412.109375	-46.707039
6413.085938	-46.591885
6414.062500	-46.948677
6415.039062	-46.323196
6416.015625	-46.054596
6416.992188	-46.846191
6417.968750	-47.132469
6418.945312	-46.269638
6419.921875	-46.528481
6420.898438	-46.525333
6421.875000	-47.241135
6422.851562	-46.839302
6423.828125	-47.403694
6424.804688	-47.295406
6425.781250	-46.603855
6426.757812	-47.280682
6427.734375	-46.745251
6428.710938	-47.238735
6429.687500	-46.357162
6430.664062	-46.882935
6431.640625	-47.108604
6432.617188	-46.579449
6433.593750	-47.588062
6434.570312	-46.880730
6435.546875	-46.906918
6436.523438	-46.275219
6437.500000	-45.953506
6438.476562	-46.468403
6439.453125	-47.061550
6440.429688	-46.934219
6441.406250	-46.987366
6442.382812	-47.817074
6443.359375	-47.408047
6444.335938	-46.731201
6445.312500	-46.779831
6446.289062	-46.315853
6447.265625	-47.033897
6448.242188	-46.919846
6449.218750	-47.544842
6450.195312	-46.828030
6451.171875	-47.005802
6452.148438	-47.284115
6453.125000	-47.211628
6454.101562	-47.072876
6455.078125	-47.074142
6456.054688	-46.719471
6457.031250	-47.497482
6458.007812	-47.075386
6458.984375	-47.312740
6459.960938	-46.838631
6460.937500	-46.395134
6461.914062	-47.288864
6462.890625	-47.076267
6463.867188	-46.480705
6464.843750	-46.765755
6465.820312	-47.553661
6466.796875	-46.094074
6467.773438	-46.322338
6468.750000	-46.710255
6469.726562	-46.907574
6470.703125	-47.130508
6471.679688	-46.965096
6472.656250	-47.055332
6473.632812	-47.398640
6474.609375	-47.928989
6475.585938	-46.785843
6476.562500	-47.289791
6477.539062	-47.119877
6478.515625	-46.585041
6479.492188	-46.940224
6480.468750	-47.067139
6481.445312	-46.229778
6482.421875	-47.190361
6483.398438	-46.960236
6484.375000	-47.579193
6485.351562	-47.214695
6486.328125	-47.147327
6487.304688	-46.264889
6488.281250	-46.524242
6489.257812	-47.681850
6490.234375	-46.258369
6491.210938	-46.771168
6492.187500	-47.264900
6493.164062	-48.361515
6494.140625	-47.136055
6495.117188	-47.181774
6496.093750	-47.131638
6497.070312	-47.259068
6498.046875	-47.569107
6499.023438	-47.088089
6500.000000	-46.919125
6500.976562	-46.920506
6501.953125	-46.831196
6502.929688	-46.591370
6503.906250	-46.813251
6504.882812	-47.664341
6505.859375	-46.804787
6506.835938	-47.806881
6507.812500	-47.061501
6508.789062	-46.631790
6509.765625	-46.915257
6510.742188	-46.884171
6511.718750	-46.523434
6512.695312	-47.545143
6513.671875	-47.099041
6514.648438	-47.609787
6515.625000	-47.515511
6516.601562	-47.113991
6517.578125	-46.542812
6518.554688	-46.436836
6519.531250	-47.471443
6520.507812	-47.341103
6521.484375	-47.258076
6522.460938	-47.687412
6523.437500	-47.477715
6524.414062	-47.210075
6525.390625	-46.996277
6526.367188	-46.676910
6527.343750	-47.030792
6528.320312	-47.207241
6529.296875	-47.049103
6530.273438	-46.945881
6531.250000	-46.804157
6532.226562	-47.136021
6533.203125	-47.032101
6534.179688	-46.348564
6535.156250	-46.901970
6536.132812	-46.423107
6537.109375	-46.447739
6538.085938	-46.579517
6539.062500	-47.173851
6540.039062	-47.212242
6541.015625	-46.690720
6541.992188	-46.699673
6542.968750	-46.553280
6543.945312	-47.197006
6544.921875	-46.209801
6545.898438	-46.391331
6546.875000	-46.597279
6547.851562	-47.364693
6548.828125	-46.585194
6549.804688	-46.816738
6550.781250	-47.341225
6551.757812	-46.332119
6552.734375	-46.953087
6553.710938	-47.102848
6554.687500	-46.804325
6555.664062	-46.849529
6556.640625	-46.868744
6557.617188	-46.926163
6558.593750	-47.181519
6559.570312	-46.423180
6560.546875	-47.146870
6561.523438	-47.541393
6562.500000	-46.760338
6563.476562	-47.513470
6564.453125	-46.753380
6565.429688	-46.220097
6566.406250	-46.540325
6567.382812	-46.625282
6568.359375	-46.905594
6569.335938	-47.042313
6570.312500	-45.634659
6571.289062	-46.889767
6572.265625	-47.618576
6573.242188	-46.609966
6574.218750	-46.388916
6575.195312	-46.549625
6576.171875	-46.382866
6577.148438	-47.095387
6578.125000	-47.306343
6579.101562	-47.501152
6580.078125	-46.783058
6581.054688	-47.600380
6582.031250	-46.899021
6583.007812	-46.826702
6583.984375	-47.111782
6584.960938	-47.129986
6585.937500	-46.597275
6586.914062	-46.703613
6587.890625	-46.139000
6588.867188	-46.962547
6589.843750	-46.526112
6590.820312	-46.389061
6591.796875	-47.205151
6592.773438	-46.644508
6593.750000	-46.929401
6594.726562	-46.914249
6595.703125	-47.548134
6596.679688	-48.095337
6597.656250	-46.972233
6598.632812	-46.929310
6599.609375	-47.031441
6600.585938	-47.538033
6601.562500	-47.142307
6602.539062	-47.877735
6603.515625	-47.676369
6604.492188	-47.450920
6605.468750	-46.940628
6606.445312	-46.463364
6607.421875	-47.512970
6608.398438	-47.171619
6609.375000	-47.107937
6610.351562	-46.401073
6611.328125	-47.162514
6612.304688	-46.709976
6613.281250	-47.125813
6614.257812	-47.578896
6615.234375	-47.228123
6616.210938	-47.456123
6617.187500	-46.551525
6618.164062	-46.875946
6619.140625	-47.621712
6620.117188	-47.243732
6621.093750	-46.972809
6622.070312	-47.191887
6623.046875	-47.501560
6624.023438	-46.765385
6625.000000	-47.226086
6625.976562	-46.868916
6626.953125	-47.381130
6627.929688	-46.681892
6628.906250	-46.932102
6629.882812	-46.677414
6630.859375	-46.275646
6631.835938	-47.034386
6632.812500	-47.023987
6633.789062	-46.927380
6634.765625	-46.706299
6635.742188	-47.230774
6636.718750	-46.949821
6637.695312	-46.521561
6638.671875	-46.633522
6639.648438	-46.409386
6640.625000	-47.008476
6641.601562	-47.003078
6642.578125	-47.547844
6643.554688	-47.457748
6644.531250	-46.903656
6645.507812	-46.955540
6646.484375	-46.540176
6647.460938	-46.775555
6648.437500	-46.822678
6649.414062	-46.732510
6650.390625	-46.550369
6651.367188	-46.719994
6652.343750	-47.559189
6653.320312	-46.765198
6654.296875	-47.110153
6655.273438	-46.616528
6656.250000	-46.661957
6657.226562	-46.549900
6658.203125	-47.004265
6659.179688	-47.637371
6660.156250	-47.014866
6661.132812	-47.345604
6662.109375	-46.959290
6663.085938	-47.501228
6664.062500	-46.663582
6665.039062	-46.766518
6666.015625	-46.349979
6666.992188	-46.899200
6667.968750	-46.827026
6668.945312	-47.250290
6669.921875	-46.649029
6670.898438	-46.512016
6671.875000	-46.460590
6672.851562	-47.070847
6673.828125	-46.943352
6674.804688	-46.359268
6675.781250	-46.454254
6676.757812	-46.080204
6677.734375	-46.918865
6678.710938	-47.357407
6679.687500	-46.888340
6680.664062	-46.650364
6681.640625	-45.891090
6682.617188	-46.227417
6683.593750	-47.817596
6684.570312	-47.119373
6685.546875	-46.043678
6686.523438	-46.845470
6687.500000	-46.824146
6688.476562	-46.108959
6689.453125	-47.491699
6690.429688	-47.195469
6691.406250	-47.517941
6692.382812	-46.973347
6693.359375	-46.939903
6694.335938	-47.060081
6695.312500	-47.080235
6696.289062	-47.260925
6697.265625	-47.258667
6698.242188	-47.199520
6699.218750	-46.794838
6700.195312	-46.874046
6701.171875	-46.874725
6702.148438	-47.300091
6703.125000	-46.794155
6704.101562	-46.742104
6705.078125	-46.631893
6706.054688	-45.747368
6707.031250	-46.863327
6708.007812	-47.050884
6708.984375	-47.205925
6709.960938	-47.261951
6710.937500	-46.731201
6711.914062	-47.309063
6712.890625	-47.037155
6713.867188	-46.588570
6714.843750	-47.548275
6715.820312	-47.945061
6716.796875	-47.948391
6717.773438	-46.892086
6718.750000	-47.385708
6719.726562	-46.598854
6720.703125	-47.050953
6721.679688	-47.441147
6722.656250	-46.678791
6723.632812	-46.462662
6724.609375	-46.798130
6725.585938	-46.576744
6726.562500	-47.100342
6727.539062	-47.258514
6728.515625	-47.211761
6729.492188	-47.589207
6730.468750	-46.433151
6731.445312	-45.820103
6732.421875	-46.622913
6733.398438	-46.080307
6734.375000	-47.015961
6735.351562	-46.698883
6736.328125	-46.900806
6737.304688	-46.842186
6738.281250	-46.167126
6739.257812	-47.473194
6740.234375	-47.634956
6741.210938	-46.787014
6742.187500	-47.129990
6743.164062	-47.157829
6744.140625	-47.268707
6745.117188	-46.660683
6746.093750	-46.955231
6747.070312	-46.360584
6748.046875	-47.396511
6749.023438	-47.411514
6750.000000	-46.862492
6750.976562	-47.778008
6751.953125	-46.286739
6752.929688	-46.874664
6753.906250	-46.683220
6754.882812	-46.297535
6755.859375	-47.000607
6756.835938	-47.278023
6757.812500	-46.987251
6758.789062	-47.333263
6759.765625	-47.526691
6760.742188	-47.153542
6761.718750	-47.232826
6762.695312	-47.238174
6763.671875	-46.796242
6764.648438	-46.210361
6765.625000	-46.205139
6766.601562	-46.631664
6767.578125	-46.556065
6768.554688	-46.554405
6769.531250	-46.539391
6770.507812	-46.999859
6771.484375	-47.388268
6772.460938	-47.294292
6773.437500	-47.940342
6774.414062	-47.742119
6775.390625	-46.819710
6776.367188	-46.875549
6777.343750	-46.701839
6778.320312	-46.293335
6779.296875	-46.479725
6780.273438	-46.991886
6781.250000	-47.026035
6782.226562	-47.264194
6783.203125	-46.950397
6784.179688	-47.495430
6785.156250	-47.123596
6786.132812	-46.690125
6787.109375	-46.465450
6788.085938	-46.421997
6789.062500	-48.163822
6790.039062	-47.013603
6791.015625	-46.805698
6791.992188	-46.687122
6792.968750	-47.130737
6793.945312	-47.046036
6794.921875	-47.476944
6795.898438	-47.063454
6796.875000	-46.453598
6797.851562	-46.704269
6798.828125	-47.205544
6799.804688	-46.629013
6800.781250	-46.453369
6801.757812	-46.919579
6802.734375	-46.671272
6803.710938	-47.200520
6804.687500	-47.301350
6805.664062	-46.559547
6806.640625	-46.938572
6807.617188	-46.672829
6808.593750	-46.486336
6809.570312	-46.162537
6810.546875	-46.486332
6811.523438	-46.703320
6812.500000	-46.163227
6813.476562	-47.159527
6814.453125	-46.706253
6815.429688	-47.433170
6816.406250	-47.041214
6817.382812	-46.763794
6818.359375	-46.394543
6819.335938	-46.480278
6820.312500	-46.941036
6821.289062	-46.735355
6822.265625	-47.140865
6823.242188	-46.843338
6824.218750	-47.239044
6825.195312	-47.069050
6826.171875	-46.960438
6827.148438	-46.958790
6828.125000	-47.422897
6829.101562	-47.135078
6830.078125	-46.107918
6831.054688	-45.885269
6832.031250	-46.942165
6833.007812	-46.175343
6833.984375	-46.981609
6834.960938	-47.196827
6835.937500	-47.153542
6836.914062	-46.780434
6837.890625	-47.072014
6838.867188	-46.656601
6839.843750	-47.255844
6840.820312	-47.039616
6841.796875	-46.704361
6842.773438	-46.189182
6843.750000	-46.806259
6844.726562	-47.599525
6845.703125	-47.005165
6846.679688	-46.536304
6847.656250	-46.650532
6848.632812	-47.120811
6849.609375	-46.714100
6850.585938	-47.161373
6851.562500	-46.404655
6852.539062	-47.083576
6853.515625	-46.710487
6854.492188	-47.201523
6855.468750	-47.119659
6856.445312	-46.655079
6857.421875	-47.266006
6858.398438	-47.927105
6859.375000	-47.498577
6860.351562	-46.387657
6861.328125	-46.772816
6862.304688	-46.555573
6863.281250	-46.491928
6864.257812	-47.076195
6865.234375	-47.586315
6866.210938	-47.062599
6867.187500	-47.467533
6868.164062	-46.776638
6869.140625	-47.176876
6870.117188	-46.662659
6871.093750	-47.253605
6872.070312	-46.584003
6873.046875	-47.022705
6874.023438	-47.572163
6875.000000	-47.516949
6875.976562	-46.710224
6876.953125	-46.702919
6877.929688	-47.673016
6878.906250	-46.640499
6879.882812	-46.432186
6880.859375	-45.619095
6881.835938	-46.757053
6882.812500	-47.545486
6883.789062	-47.501774
6884.765625	-47.211304
6885.742188	-46.939827
6886.718750	-47.336956
6887.695312	-46.683010
6888.671875	-46.425297
6889.648438	-47.060684
6890.625000	-46.901337
6891.601562	-46.789055
6892.578125	-46.871544
6893.554688	-46.431854
6894.531250	-46.688690
6895.507812	-46.757431
6896.484375	-47.122147
6897.460938	-46.456963
6898.437500	-47.134308
6899.414062	-46.424133
6900.390625	-46.283829
6901.367188	-46.090622
6902.343750	-46.909649
6903.320312	-46.864124
6904.296875	-47.568035
6905.273438	-47.157818
6906.250000	-46.549660
6907.226562	-45.805107
6908.203125	-46.885517
6909.179688	-46.864311
6910.156250	-46.146507
6911.132812	-46.612865
6912.109375	-46.458305
6913.085938	-46.891285
6914.062500	-46.937084
6915.039062	-46.634460
6916.015625	-46.918201
6916.992188	-46.939156
6917.968750	-46.614197
6918.945312	-47.057903
6919.921875	-47.306099
6920.898438	-47.104126
6921.875000	-47.022110
6922.851562	-47.659451
6923.828125	-47.124641
6924.804688	-46.728832
6925.781250	-46.961796
6926.757812	-47.021873
6927.734375	-46.554737
6928.710938	-46.533272
6929.687500	-46.862038
6930.664062	-47.823135
6931.640625	-46.837101
6932.617188	-47.287373
6933.593750	-47.427109
6934.570312	-47.363396
6935.546875	-46.230640
6936.523438	-47.583241
6937.500000	-47.520439
6938.476562	-47.325676
6939.453125	-46.457047
6940.429688	-46.727169
6941.406250	-47.187729
6942.382812	-47.108440
6943.359375	-46.826302
6944.335938	-47.484283
6945.312500	-46.937195
6946.289062	-47.106709
6947.265625	-47.085464
6948.242188	-46.286781
6949.218750	-47.231339
6950.195312	-46.178474
6951.171875	-46.648029
6952.148438	-47.029598
6953.125000	-47.927666
6954.101562	-46.213245
6955.078125	-47.141960
6956.054688	-47.148365
6957.031250	-47.384918
6958.007812	-47.572777
6958.984375	-47.506084
6959.960938	-47.256111
6960.937500	-47.021473
6961.914062	-47.203671
6962.890625	-46.381996
6963.867188	-46.859211
6964.843750	-47.469143
6965.820312	-47.663799
6966.796875	-46.926617
6967.773438	-46.926125
6968.750000	-46.457737
6969.726562	-46.936256
6970.703125	-47.201546
6971.679688	-47.179058
6972.656250	-46.667400
6973.632812	-47.091202
6974.609375	-47.083351
6975.585938	-47.173615
6976.562500	-46.224972
6977.539062	-47.185112
6978.515625	-46.667858
6979.492188	-47.196762
6980.468750	-46.506073
6981.445312	-46.498577
6982.421875	-47.757736
6983.398438	-47.238556
6984.375000	-46.878670
6985.351562	-46.878551
6986.328125	-47.593143
6987.304688	-46.992393
6988.281250	-47.390747
6989.257812	-47.528492
6990.234375	-46.690613
6991.210938	-46.720779
6992.187500	-47.139256
6993.164062	-46.770184
6994.140625	-46.552151
6995.117188	-46.834366
6996.093750	-46.534309
6997.070312	-46.853699
6998.046875	-47.073547
6999.023438	-46.823280
7000.000000	-46.722374
7000.976562	-45.997341
7001.953125	-47.586887
7002.929688	-46.931301
7003.906250	-46.951981
7004.882812	-46.890766
7005.859375	-46.674412
7006.835938	-46.845394
7007.812500	-47.128811
7008.789062	-47.300354
7009.765625	-47.001984
7010.742188	-47.232086
7011.718750	-47.287357
7012.695312	-46.706417
7013.671875	-46.953335
7014.648438	-46.882282
7015.625000	-46.778915
7016.601562	-48.209663
7017.578125	-46.435505
7018.554688	-47.022114
7019.531250	-47.449245
7020.507812	-46.957439
7021.484375	-47.004505
7022.460938	-46.484295
7023.437500	-47.389603
7024.414062	-46.885628
7025.390625	-47.496601
7026.367188	-47.426762
7027.343750	-46.308876
7028.320312	-47.275578
7029.296875	-47.071747
7030.273438	-47.368591
7031.250000	-46.968353
7032.226562	-46.906013
7033.203125	-46.794197
7034.179688	-46.763420
7035.156250	-46.470776
7036.132812	-46.975414
7037.109375	-46.945442
7038.085938	-46.956776
7039.062500	-47.185837
7040.039062	-47.447483
7041.015625	-47.157402
7041.992188	-46.927479
7042.968750	-46.342354
7043.945312	-45.861092
7044.921875	-47.352627
7045.898438	-47.072601
7046.875000	-47.054157
7047.851562	-46.953159
7048.828125	-47.178150
7049.804688	-45.884972
7050.781250	-47.480968
7051.757812	-46.968815
7052.734375	-46.946377
7053.710938	-47.204174
7054.687500	-46.788918
7055.664062	-47.669693
7056.640625	-47.267826
7057.617188	-46.210529
7058.593750	-46.948097
7059.570312	-47.195618
7060.546875	-46.683941
7061.523438	-47.279301
7062.500000	-46.990280
7063.476562	-46.529850
7064.453125	-46.276611
7065.429688	-46.807877
7066.406250	-47.566551
7067.382812	-46.773918
7068.359375	-46.379276
7069.335938	-46.630627
7070.312500	-46.876560
7071.289062	-46.511002
7072.265625	-47.364586
7073.242188	-47.727573
7074.218750	-46.648529
7075.195312	-47.065426
7076.171875	-46.794216
7077.148438	-47.789772
7078.125000	-47.014149
7079.101562	-46.806484
7080.078125	-46.398228
7081.054688	-47.446621
7082.031250	-46.516666
7083.007812	-46.747791
7083.984375	-46.143188
7084.960938	-46.549603
7085.937500	-46.689877
7086.914062	-46.810181
7087.890625	-47.093235
7088.867188	-47.302811
7089.843750	-47.113857
7090.820312	-46.933540
7091.796875	-47.106461
7092.773438	-47.201656
7093.750000	-47.405872
7094.726562	-47.759274
7095.703125	-46.709370
7096.679688	-46.870430
7097.656250	-46.740475
7098.632812	-46.608665
7099.609375	-46.643967
7100.585938	-47.553387
7101.562500	-47.040211
7102.539062	-46.752094
7103.515625	-47.322422
7104.492188	-47.028755
7105.468750	-46.762016
7106.445312	-46.924503
7107.421875	-47.332577
7108.398438	-47.097237
7109.375000	-46.803043
7110.351562	-46.231522
7111.328125	-46.245365
7112.304688	-48.027424
7113.281250	-47.283306
7114.257812	-46.621010
7115.234375	-47.223858
7116.210938	-47.060669
7117.187500	-46.766750
7118.164062	-46.239578
7119.140625	-47.562897
7120.117188	-47.142506
7121.093750	-47.237492
7122.070312	-47.165367
7123.046875	-47.690300
7124.023438	-47.543289
7125.000000	-45.964455
7125.976562	-46.149708
7126.953125	-47.222446
7127.929688	-47.189671
7128.906250	-47.475838
7129.882812	-47.151608
7130.859375	-47.354668
7131.835938	-46.909863
7132.812500	-46.570625
7133.789062	-47.264767
7134.765625	-46.375465
7135.742188	-47.479248
7136.718750	-47.548958
7137.695312	-47.682751
7138.671875	-46.532597
7139.648438	-46.164783
7140.625000	-47.478046
7141.601562	-47.360313
7142.578125	-47.099174
7143.554688	-48.173561
7144.531250	-47.003498
7145.507812	-47.001091
7146.484375	-46.573288
7147.460938	-47.175934
7148.437500	-46.685356
7149.414062	-47.482452
7150.390625	-46.624935
7151.367188	-46.832314
7152.343750	-46.747887
7153.320312	-46.628811
7154.296875	-47.401630
7155.273438	-46.486065
7156.250000	-47.046741
7157.226562	-47.006855
7158.203125	-46.617142
7159.179688	-47.203262
7160.156250	-47.007191
7161.132812	-46.730412
7162.109375	-47.097099
7163.085938	-47.232433
7164.062500	-47.294827
7165.039062	-46.602871
7166.015625	-47.178963
7166.992188	-46.914795
7167.968750	-46.859295
7168.945312	-47.187332
7169.921875	-46.843475
7170.898438	-46.058281
7171.875000	-47.504753
7172.851562	-46.599419
7173.828125	-47.270908
7174.804688	-46.687927
7175.781250	-47.531044
7176.757812	-47.925465
7177.734375	-47.250729
7178.710938	-47.478588
7179.687500	-46.745296
7180.664062	-47.384411
7181.640625	-46.880173
7182.617188	-46.798489
7183.593750	-47.457039
7184.570312	-46.648819
7185.546875	-47.264572
7186.523438	-47.338127
7187.500000	-47.336292
7188.476562	-46.910507
7189.453125	-46.530010
7190.429688	-47.838833
7191.406250	-47.003883
7192.382812	-46.309231
7193.359375	-46.856956
7194.335938	-47.380192
7195.312500	-47.105350
7196.289062	-47.280838
7197.265625	-46.853230
7198.242188	-46.814362
7199.218750	-46.725395
7200.195312	-46.733654
7201.171875	-46.802113
7202.148438	-47.034626
7203.125000	-47.117378
7204.101562	-47.552982
7205.078125	-47.322559
7206.054688	-46.590767
7207.031250	-46.639381
7208.007812	-47.117363
7208.984375	-46.445072
7209.960938	-47.085670
7210.937500	-47.133121
7211.914062	-47.202408
7212.890625	-46.773865
7213.867188	-47.847633
7214.843750	-46.758850
7215.820312	-46.483372
7216.796875	-46.504433
7217.773438	-46.783958
7218.750000	-47.311893
7219.726562	-47.199589
7220.703125	-48.035252
7221.679688	-45.930664
7222.656250	-46.971687
7223.632812	-46.974995
7224.609375	-46.994438
7225.585938	-47.372112
7226.562500	-46.722984
7227.539062	-46.469196
7228.515625	-47.110237
7229.492188	-47.558590
7230.468750	-47.313843
7231.445312	-47.717495
7232.421875	-47.347282
7233.398438	-46.260941
7234.375000	-46.499542
7235.351562	-47.066887
7236.328125	-46.665977
7237.304688	-46.688293
7238.281250	-46.807758
7239.257812	-46.522591
7240.234375	-47.127647
7241.210938	-46.612598
7242.187500	-46.961502
7243.164062	-46.464531
7244.140625	-46.765205
7245.117188	-46.536209
7246.093750	-46.116974
7247.070312	-46.180187
7248.046875	-47.367054
7249.023438	-46.656841
7250.000000	-46.517754
7250.976562	-46.940250
7251.953125	-47.168365
7252.929688	-46.490124
7253.906250	-47.059475
7254.882812	-47.145473
7255.859375	-47.390404
7256.835938	-46.227985
7257.812500	-46.747013
7258.789062	-47.302113
7259.765625	-46.928017
7260.742188	-46.626610
7261.718750	-45.840004
7262.695312	-46.412560
7263.671875	-47.479053
7264.648438	-47.050293
7265.625000	-47.524078
7266.601562	-46.891533
7267.578125	-46.007603
7268.554688	-47.039108
7269.531250	-47.036777
7270.507812	-47.091316
7271.484375	-46.591995
7272.460938	-46.932144
7273.437500	-47.066586
7274.414062	-47.078255
7275.390625	-47.634754
7276.367188	-47.562439
7277.343750	-46.853870
7278.320312	-46.153763
7279.296875	-46.557739
7280.273438	-46.410809
7281.250000	-47.040649
7282.226562	-46.798370
7283.203125	-46.898598
7284.179688	-47.220253
7285.156250	-47.416756
7286.132812	-47.268799
7287.109375	-46.484097
7288.085938	-47.180595
7289.062500	-47.049427
7290.039062	-47.327816
7291.015625	-47.719868
7291.992188	-47.124321
7292.968750	-47.283924
7293.945312	-47.507996
7294.921875	-47.669098
7295.898438	-46.946964
7296.875000	-47.325874
7297.851562	-47.258488
7298.828125	-46.809185
7299.804688	-47.380573
7300.781250	-47.539555
7301.757812	-46.878231
7302.734375	-47.418816
7303.710938	-47.607819
7304.687500	-47.273998
7305.664062	-46.667088
7306.640625	-47.626301
7307.617188	-47.392052
7308.593750	-46.694969
7309.570312	-47.051529
7310.546875	-46.886883
7311.523438	-47.332912
7312.500000	-47.196556
7313.476562	-46.977764
7314.453125	-47.674877
7315.429688	-47.676819
7316.406250	-46.899052
7317.382812	-46.495304
7318.359375	-46.646023
7319.335938	-46.821640
7320.312500	-46.772827
7321.289062	-46.519295
7322.265625	-46.855392
7323.242188	-46.880276
7324.218750	-46.624249
7325.195312	-46.252369
7326.171875	-46.803165
7327.148438	-47.257019
7328.125000	-46.692268
7329.101562	-46.753437
7330.078125	-46.543331
7331.054688	-47.067093
7332.031250	-46.688755
7333.007812	-46.727901
7333.984375	-46.659832
7334.960938	-46.370415
7335.937500	-46.177155
7336.914062	-46.525215
7337.890625	-46.933868
7338.867188	-46.783886
7339.843750	-46.743946
7340.820312	-46.934101
7341.796875	-47.255104
7342.773438	-46.187557
7343.750000	-47.006756
7344.726562	-46.811493
7345.703125	-47.694172
7346.679688	-47.095337
7347.656250	-47.240784
7348.632812	-46.596066
7349.609375	-47.385792
7350.585938	-46.781612
7351.562500	-46.688488
7352.539062	-46.488453
7353.515625	-46.158043
7354.492188	-47.053913
7355.468750	-46.736103
7356.445312	-47.192318
7357.421875	-46.941830
7358.398438	-47.148579
7359.375000	-46.813553
7360.351562	-46.800285
7361.328125	-46.873394
7362.304688	-46.667370
7363.281250	-46.814308
7364.257812	-46.348396
7365.234375	-47.472729
7366.210938	-47.139866
7367.187500	-48.224350
7368.164062	-47.170589
7369.140625	-46.852219
7370.117188	-46.717262
7371.093750	-46.977364
7372.070312	-46.640057
7373.046875	-46.898602
7374.023438	-46.293716
7375.000000	-46.394142
7375.976562	-47.651661
7376.953125	-46.495697
7377.929688	-46.614285
7378.906250	-47.933392
7379.882812	-46.807724
7380.859375	-46.411510
7381.835938	-47.042404
7382.812500	-46.805771
7383.789062	-46.479012
7384.765625	-46.682262
7385.742188	-46.814724
7386.718750	-47.552708
7387.695312	-47.284843
7388.671875	-46.719406
7389.648438	-46.797821
7390.625000	-47.139538
7391.601562	-46.413658
7392.578125	-46.879791
7393.554688	-47.054657
7394.531250	-47.325745
7395.507812	-47.708195
7396.484375	-47.052944
7397.460938	-46.990986
7398.437500	-46.335754
7399.414062	-47.514248
7400.390625	-46.983547
7401.367188	-47.334595
7402.343750	-47.190113
7403.320312	-47.416176
7404.296875	-47.408375
7405.273438	-46.768578
7406.250000	-46.493805
7407.226562	-47.390263
7408.203125	-47.607746
7409.179688	-47.299099
7410.156250	-47.031506
7411.132812	-46.374882
7412.109375	-46.683453
7413.085938	-47.260624
7414.062500	-46.219624
7415.039062	-46.832077
7416.015625	-46.833580
7416.992188	-46.422306
7417.968750	-46.822754
7418.945312	-46.888103
7419.921875	-46.795174
7420.898438	-46.380878
7421.875000	-47.776470
7422.851562	-47.515415
7423.828125	-46.998730
7424.804688	-47.105682
7425.781250	-46.576187
7426.757812	-46.840343
7427.734375	-47.071892
7428.710938	-46.810497
7429.687500	-46.854038
7430.664062	-47.614395
7431.640625	-46.782475
7432.617188	-47.483307
7433.593750	-47.568680
7434.570312	-46.101936
7435.546875	-47.225456
7436.523438	-46.425564
7437.500000	-46.442989
7438.476562	-47.114044
7439.453125	-47.225410
7440.429688	-47.139671
7441.406250	-47.593369
7442.382812	-47.726452
7443.359375	-46.888176
7444.335938	-46.557888
7445.312500	-45.749386
7446.289062	-46.083027
7447.265625	-47.169559
7448.242188	-46.924854
7449.218750	-46.318321
7450.195312	-46.741882
7451.171875	-46.866879
7452.148438	-45.880650
7453.125000	-47.363670
7454.101562	-46.747520
7455.078125	-46.296127
7456.054688	-46.565598
7457.031250	-46.056480
7458.007812	-46.035946
7458.984375	-47.085938
7459.960938	-46.824192
7460.937500	-46.959038
7461.914062	-46.755142
7462.890625	-46.965343
7463.867188	-46.063206
7464.843750	-47.124386
7465.820312	-47.532185
7466.796875	-46.297821
7467.773438	-46.966663
7468.750000	-47.107910
7469.726562	-46.329483
7470.703125	-46.493961
7471.679688	-46.814816
7472.656250	-47.237091
7473.632812	-47.350704
7474.609375	-47.019611
7475.585938	-47.128166
7476.562500	-46.714989
7477.539062	-47.543896
7478.515625	-46.840775
7479.492188	-46.818951
7480.468750	-47.219543
7481.445312	-47.337070
7482.421875	-47.666843
7483.398438	-47.562656
7484.375000	-47.532516
7485.351562	-47.111778
7486.328125	-47.219608
7487.304688	-46.888489
7488.281250	-45.992901
7489.257812	-47.180767
7490.234375	-46.857269
7491.210938	-47.051376
7492.187500	-46.944225
7493.164062	-46.738762
7494.140625	-47.221283
7495.117188	-46.463596
7496.093750	-47.654758
7497.070312	-47.279850
7498.046875	-47.140858
7499.023438	-47.192974
7500.000000	-46.649483
7500.976562	-46.705288
7501.953125	-46.546661
7502.929688	-47.054291
7503.906250	-46.997913
7504.882812	-46.481247
7505.859375	-46.914616
7506.835938	-46.512905
7507.812500	-47.341400
7508.789062	-46.875679
7509.765625	-47.265053
7510.742188	-46.713375
7511.718750	-46.175091
7512.695312	-47.098637
7513.671875	-46.787216
7514.648438	-46.647709
7515.625000	-46.723583
7516.601562	-47.145172
7517.578125	-46.716927
7518.554688	-47.149265
7519.531250	-47.470493
7520.507812	-47.267895
7521.484375	-47.197113
7522.460938	-47.078484
7523.437500	-46.970718
7524.414062	-46.880146
7525.390625	-47.718479
7526.367188	-46.790173
7527.343750	-47.475979
7528.320312	-46.901142
7529.296875	-48.242775
7530.273438	-47.683807
7531.250000	-47.124424
7532.226562	-47.692818
7533.203125	-46.950367
7534.179688	-46.903790
7535.156250	-47.273487
7536.132812	-46.620205
7537.109375	-47.197678
7538.085938	-47.343479
7539.062500	-46.491234
7540.039062	-47.134884
7541.015625	-46.938496
7541.992188	-46.724834
7542.968750	-47.136986
7543.945312	-47.635906
7544.921875	-47.128754
7545.898438	-46.607510
7546.875000	-46.746582
7547.851562	-46.763271
7548.828125	-46.626503
7549.804688	-46.911766
7550.781250	-47.209976
7551.757812	-46.860023
7552.734375	-47.074612
7553.710938	-46.895428
7554.687500	-47.251602
7555.664062	-46.695065
7556.640625	-46.574039
7557.617188	-46.429878
7558.593750	-47.363880
7559.570312	-46.598389
7560.546875	-46.826733
7561.523438	-46.994873
7562.500000	-46.522331
7563.476562	-46.502785
7564.453125	-47.131584
7565.429688	-47.268810
7566.406250	-47.301502
7567.382812	-46.721088
7568.359375	-47.009346
7569.335938	-47.157310
7570.312500	-46.949829
7571.289062	-47.004719
7572.265625	-47.512463
7573.242188	-46.817768
7574.218750	-46.911144
7575.195312	-47.065910
7576.171875	-47.274029
7577.148438	-47.286953
7578.125000	-47.274956
7579.101562	-47.104313
7580.078125	-47.519600
7581.054688	-46.782639
7582.031250	-46.854568
7583.007812	-47.457287
7583.984375	-46.684402
7584.960938	-46.925034
7585.937500	-46.745041
7586.914062	-47.707378
7587.890625	-47.560612
7588.867188	-47.565758
7589.843750	-46.875591
7590.820312	-46.896408
7591.796875	-46.959606
7592.773438	-46.823189
7593.750000	-46.621037
7594.726562	-47.124115
7595.703125	-46.369644
7596.679688	-47.632584
7597.656250	-46.736046
7598.632812	-47.046021
7599.609375	-46.924423
7600.585938	-46.792515
7601.562500	-47.445721
7602.539062	-46.710461
7603.515625	-47.775192
7604.492188	-48.174927
7605.468750	-46.801411
7606.445312	-47.106892
7607.421875	-47.076897
7608.398438	-47.011642
7609.375000	-47.451946
7610.351562	-47.184158
7611.328125	-47.035152
7612.304688	-46.906696
7613.281250	-46.948799
7614.257812	-47.885719
7615.234375	-47.124825
7616.210938	-46.533039
7617.187500	-47.937305
7618.164062	-47.069408
7619.140625	-46.419434
7620.117188	-46.840717
7621.093750	-47.424129
7622.070312	-46.588165
7623.046875	-46.922581
7624.023438	-48.251373
7625.000000	-47.251976
7625.976562	-47.162319
7626.953125	-46.392132
7627.929688	-47.164017
7628.906250	-46.755318
7629.882812	-46.809887
7630.859375	-46.986866
7631.835938	-46.763836
7632.812500	-47.656342
7633.789062	-46.833527
7634.765625	-47.293671
7635.742188	-46.733215
7636.718750	-46.565548
7637.695312	-46.652645
7638.671875	-46.430660
7639.648438	-46.582520
7640.625000	-47.020275
7641.601562	-46.651367
7642.578125	-46.245796
7643.554688	-46.910549
7644.531250	-46.582611
7645.507812	-47.047615
7646.484375	-46.928829
7647.460938	-46.384312
7648.437500	-46.906090
7649.414062	-46.642376
7650.390625	-47.066372
7651.367188	-46.652489
7652.343750	-47.570461
7653.320312	-47.041561
7654.296875	-46.406361
7655.273438	-46.516472
7656.250000	-47.481068
7657.226562	-46.873917
7658.203125	-47.621250
7659.179688	-46.685844
7660.156250	-47.270733
7661.132812	-46.860775
7662.109375	-47.630959
7663.085938	-46.606838
7664.062500	-46.713856
7665.039062	-48.047363
7666.015625	-47.216728
7666.992188	-46.456085
7667.968750	-46.826389
7668.945312	-46.964302
7669.921875	-47.432873
7670.898438	-46.564835
7671.875000	-47.047451
7672.851562	-47.803921
7673.828125	-48.056511
7674.804688	-46.705509
7675.781250	-46.478092
7676.757812	-47.124168
7677.734375	-47.274429
7678.710938	-46.619667
7679.687500	-46.696140
7680.664062	-46.759464
7681.640625	-46.550472
7682.617188	-47.327629
7683.593750	-47.264893
7684.570312	-46.865456
7685.546875	-46.896290
7686.523438	-45.965279
7687.500000	-47.364765
7688.476562	-47.295395
7689.453125	-47.027905
7690.429688	-47.093815
7691.406250	-46.844643
7692.382812	-47.564789
7693.359375	-47.563095
7694.335938	-47.268070
7695.312500	-46.554180
7696.289062	-46.914314
7697.265625	-45.872074
7698.242188	-46.526012
7699.218750	-47.076313
7700.195312	-46.351219
7701.171875	-47.270798
7702.148438	-46.939335
7703.125000	-46.696407
7704.101562	-46.744228
7705.078125	-46.979206
7706.054688	-46.643768
7707.031250	-47.298058
7708.007812	-46.813717
7708.984375	-47.607040
7709.960938	-47.359921
7710.937500	-46.869312
7711.914062	-46.617630
7712.890625	-47.347527
7713.867188	-47.065418
7714.843750	-46.839642
7715.820312	-47.230309
7716.796875	-47.397011
7717.773438	-47.008667
7718.750000	-46.489174
7719.726562	-46.068565
7720.703125	-46.581383
7721.679688	-46.570671
7722.656250	-46.518467
7723.632812	-47.226570
7724.609375	-47.024940
7725.585938	-46.308773
7726.562500	-47.063610
7727.539062	-47.406536
7728.515625	-47.079327
7729.492188	-46.974110
7730.468750	-46.684448
7731.445312	-46.488796
7732.421875	-47.371124
7733.398438	-47.026928
7734.375000	-47.716164
7735.351562	-47.789768
7736.328125	-47.538544
7737.304688	-46.958347
7738.281250	-46.965343
7739.257812	-46.923000
7740.234375	-46.295734
7741.210938	-46.861710
7742.187500	-46.456608
7743.164062	-46.674812
7744.140625	-47.724785
7745.117188	-46.677689
7746.093750	-46.943760
7747.070312	-45.912159
7748.046875	-46.977547
7749.023438	-47.047131
7750.000000	-47.071850
7750.976562	-46.424004
7751.953125	-47.171612
7752.929688	-46.951561
7753.906250	-46.780903
7754.882812	-48.016064
7755.859375	-47.109676
7756.835938	-46.715858
7757.812500	-47.180794
7758.789062	-46.886673
7759.765625	-47.084064
7760.742188	-46.831142
7761.718750	-46.643055
7762.695312	-46.563751
7763.671875	-46.769321
7764.648438	-47.023903
7765.625000	-46.770363
7766.601562	-46.517994
7767.578125	-46.402241
7768.554688	-46.660461
7769.531250	-46.454124
7770.507812	-46.616898
7771.484375	-47.151188
7772.460938	-47.642929
7773.437500	-47.641087
7774.414062	-46.871075
7775.390625	-47.762756
7776.367188	-47.555725
7777.343750	-47.047432
7778.320312	-47.849388
7779.296875	-46.420559
7780.273438	-46.700256
7781.250000	-46.858780
7782.226562	-47.078712
7783.203125	-46.979244
7784.179688	-47.095169
7785.156250	-48.140831
7786.132812	-47.057652
7787.109375	-46.552265
7788.085938	-47.384914
7789.062500	-47.387283
7790.039062	-46.221603
7791.015625	-47.089699
7791.992188	-46.485310
7792.968750	-47.004253
7793.945312	-46.175152
7794.921875	-47.405949
7795.898438	-47.266926
7796.875000	-46.484753
7797.851562	-47.076527
7798.828125	-46.890808
7799.804688	-46.629192
7800.781250	-46.242298
7801.757812	-46.720371
7802.734375	-46.317390
7803.710938	-46.983311
7804.687500	-47.197414
7805.664062	-46.924316
7806.640625	-47.734524
7807.617188	-46.860085
7808.593750	-47.125004
7809.570312	-47.003551
7810.546875	-46.863651
7811.523438	-47.531528
7812.500000	-47.143703
7813.476562	-47.403152
7814.453125	-46.870747
7815.429688	-46.851017
7816.406250	-46.851322
7817.382812	-46.388042
7818.359375	-46.621872
7819.335938	-47.242077
7820.312500	-46.850742
7821.289062	-47.072792
7822.265625	-47.569908
7823.242188	-47.301437
7824.218750	-47.692089
7825.195312	-46.983337
7826.171875	-46.909142
7827.148438	-47.590679
7828.125000	-46.176037
7829.101562	-46.652737
7830.078125	-46.177189
7831.054688	-46.965851
7832.031250	-47.043594
7833.007812	-47.143887
7833.984375	-47.478851
7834.960938	-47.256374
7835.937500	-47.818562
7836.914062	-46.672115
7837.890625	-46.442303
7838.867188	-46.402088
7839.843750	-46.799999
7840.820312	-46.522324
7841.796875	-46.812744
7842.773438	-46.609707
7843.750000	-46.704056
7844.726562	-46.510540
7845.703125	-47.570030
7846.679688	-47.066696
7847.656250	-46.903893
7848.632812	-47.551739
7849.609375	-46.189007
7850.585938	-46.539318
7851.562500	-46.658291
7852.539062	-47.421997
7853.515625	-47.424698
7854.492188	-47.196678
7855.468750	-46.807579
7856.445312	-46.397251
7857.421875	-46.510834
7858.398438	-47.576096
7859.375000	-46.615425
7860.351562	-46.373611
7861.328125	-47.137241
7862.304688	-47.574020
7863.281250	-46.811054
7864.257812	-46.828278
7865.234375	-46.823643
7866.210938	-47.233269
7867.187500	-46.675640
7868.164062	-46.898277
7869.140625	-47.195221
7870.117188	-46.875149
7871.093750	-47.116100
7872.070312	-46.811920
7873.046875	-46.877159
7874.023438	-47.343376
7875.000000	-47.477962
7875.976562	-46.976460
7876.953125	-46.633667
7877.929688	-47.194431
7878.906250	-46.601219
7879.882812	-46.806934
7880.859375	-47.703674
7881.835938	-46.180157
7882.812500	-46.814720
7883.789062	-47.635319
7884.765625	-47.005928
7885.742188	-46.410301
7886.718750	-46.312546
7887.695312	-47.379829
7888.671875	-47.241291
7889.648438	-46.892075
7890.625000	-46.820412
7891.601562	-46.347912
7892.578125	-47.577236
7893.554688	-47.125710
7894.531250	-47.083485
7895.507812	-46.670979
7896.484375	-47.057426
7897.460938	-46.475605
7898.437500	-46.746056
7899.414062	-47.001099
7900.390625	-46.367786
7901.367188	-46.476074
7902.343750	-46.647747
7903.320312	-46.931511
7904.296875	-46.242657
7905.273438	-46.838078
7906.250000	-46.858784
7907.226562	-47.270931
7908.203125	-47.430374
7909.179688	-46.742069
7910.156250	-47.137810
7911.132812	-46.738483
7912.109375	-47.039703
7913.085938	-46.641537
7914.062500	-46.708183
7915.039062	-47.052570
7916.015625	-47.266258
7916.992188	-46.043228
7917.968750	-46.938969
7918.945312	-46.535332
7919.921875	-46.865917
7920.898438	-46.930534
7921.875000	-45.463730
7922.851562	-46.629177
7923.828125	-46.386986
7924.804688	-46.558384
7925.781250	-46.987625
7926.757812	-46.648457
7927.734375	-47.398811
7928.710938	-46.726295
7929.687500	-47.283466
7930.664062	-47.485096
7931.640625	-47.236191
7932.617188	-47.333481
7933.593750	-46.861336
7934.570312	-46.993801
7935.546875	-46.788513
7936.523438	-46.646679
7937.500000	-46.037819
7938.476562	-47.599205
7939.453125	-47.009605
7940.429688	-46.699226
7941.406250	-46.392334
7942.382812	-46.658768
7943.359375	-47.225441
7944.335938	-46.583454
7945.312500	-46.588394
7946.289062	-46.641167
7947.265625	-47.255562
7948.242188	-47.828415
7949.218750	-46.639805
7950.195312	-46.900406
7951.171875	-48.079948
7952.148438	-46.714161
7953.125000	-46.631256
7954.101562	-46.491051
7955.078125	-46.743645
7956.054688	-46.684536
7957.031250	-46.662525
7958.007812	-47.067738
7958.984375	-46.890484
7959.960938	-46.563267
7960.937500	-47.204552
7961.914062	-46.970642
7962.890625	-47.097446
7963.867188	-46.881294
7964.843750	-47.380428
7965.820312	-47.409470
7966.796875	-46.778881
7967.773438	-47.037132
7968.750000	-47.991096
7969.726562	-46.419563
7970.703125	-47.142487
7971.679688	-46.963070
7972.656250	-46.980003
7973.632812	-47.540901
7974.609375	-46.702072
7975.585938	-47.208916
7976.562500	-46.672283
7977.539062	-47.695179
7978.515625	-46.784988
7979.492188	-47.603069
7980.468750	-46.555290
7981.445312	-47.331501
7982.421875	-47.481567
7983.398438	-46.673576
7984.375000	-46.737587
7985.351562	-46.908306
7986.328125	-47.311775
7987.304688	-47.283993
7988.281250	-47.374260
7989.257812	-47.188381
7990.234375	-46.732475
7991.210938	-47.275650
7992.187500	-46.957081
7993.164062	-46.674122
7994.140625	-46.712749
7995.117188	-46.401535
7996.093750	-47.373562
7997.070312	-47.413662
7998.046875	-47.226116
7999.023438	-46.755199
